#
# scal_0407-658.dat as part of a data collection to be published alongside
# Hobbs et al. (2019) "An ultra-wide bandwidth (704 to 4032 MHz) receiver for the Parkes 
# radio telescope".
#
# This data collection has been collated by George Hobbs (george.hobbs@csiro.au)
#
# These data are licensed under the Creative Commons Attribution 4.0 License: Attribution Copyright 2019 CSIRO
#
#
# Frequency (MHz) Scal(A) Err_Scal(A) Scal(B) Err_Scal(B)
# Calibrator equivalent flux densities are measured in Jy
#
704 0 0 0 0
705 0 0 0 0
706 0 0 0 0
707 0 0 0 0
708 0 0 0 0
709 0 0 0 0
710 0 0 0 0
711 0 0 0 0
712 0 0 0 0
713 0 0 0 0
714 0 0 0 0
715 0 0 0 0
716 0 0 0 0
717 0 0 0 0
718 0 0 0 0
719 0 0 0 0
720 0 0 0 0
721 0 0 0 0
722 0 0 0 0
723 0 0 0 0
724 0 0 0 0
725 0 0 0 0
726 0 0 0 0
727 0 0 0 0
728 0 0 0 0
729 0 0 0 0
730 0 0 0 0
731 0 0 0 0
732 0 0 0 0
733 882.708 21.9472 852.086 19.1362
734 939.935 22.7198 873.826 18.6574
735 912.139 22.9376 900.248 20.7117
736 947.883 24.858 870.403 20.0594
737 929.934 25.2091 863.88 20.2977
738 893.32 24.7964 855.359 20.4551
739 967.977 27.7729 914.231 22.2812
740 951.72 28.2911 888.297 22.6797
741 937.418 30.1664 861.65 22.9654
742 968.965 40.3347 830.667 23.5284
743 954.604 35.3045 809.365 23.0121
744 1027.33 39.7651 852.684 24.652
745 1083.55 44.4714 879.819 27.15
746 996.564 45.4113 814.723 26.6332
747 1042.79 52.6722 863.918 31.4942
748 1084.63 61.7659 832.666 31.5441
749 0 0 0 0
750 0 0 0 0
751 0 0 0 0
752 0 0 0 0
753 0 0 0 0
754 0 0 0 0
755 0 0 0 0
756 0 0 0 0
757 0 0 0 0
758 0 0 0 0
759 0 0 0 0
760 0 0 0 0
761 0 0 0 0
762 0 0 0 0
763 0 0 0 0
764 0 0 0 0
765 0 0 0 0
766 0 0 0 0
767 0 0 0 0
768 0 0 0 0
769 0 0 0 0
770 0 0 0 0
771 0 0 0 0
772 0 0 0 0
773 0 0 0 0
774 0 0 0 0
775 0 0 0 0
776 0 0 0 0
777 0 0 0 0
778 0 0 0 0
779 0 0 0 0
780 0 0 0 0
781 0 0 0 0
782 0 0 0 0
783 0 0 0 0
784 0 0 0 0
785 0 0 0 0
786 0 0 0 0
787 0 0 0 0
788 0 0 0 0
789 0 0 0 0
790 0 0 0 0
791 0 0 0 0
792 0 0 0 0
793 0 0 0 0
794 0 0 0 0
795 0 0 0 0
796 0 0 0 0
797 1192.96 21.9642 1204.18 21.0266
798 1241.45 21.996 1213.73 19.9761
799 1236.47 20.8875 1215.76 19.1741
800 1258.63 20.7583 1227.95 18.3959
801 1235.16 19.4707 1202.64 17.6717
802 1234.82 19.2082 1217.27 17.6121
803 1273.08 18.7462 1223.37 16.9628
804 1281.09 18.168 1235.71 16.8329
805 1282.84 17.712 1226.46 16.1557
806 1273.48 17.5711 1227.99 15.5411
807 1256.23 17.5644 1205.71 15.2828
808 1293.41 17.1745 1277.13 15.5853
809 1307.45 16.271 1297.52 15.3916
810 1311.58 16.2249 1279.85 14.9828
811 1314.6 16.224 1297.36 15.0587
812 1301.32 16.6475 1261.99 14.5326
813 1334.15 17.0814 1283.88 14.8708
814 1361.45 16.5993 1371.02 15.7421
815 1358.3 16.0653 1336.4 14.6165
816 1363.53 16.2527 1312.72 14.7521
817 1303.96 14.9069 1321.36 14.7493
818 1314.16 15.5463 1295.38 14.9316
819 1343.13 16.0679 1309.66 15.1001
820 1367.61 16.3249 1384 15.8881
821 1320.89 15.607 1340.08 14.9029
822 1359.75 16.1862 1351.2 14.832
823 1409.12 18.103 1340.76 15.56
824 0 0 0 0
825 0 0 0 0
826 0 0 0 0
827 0 0 0 0
828 0 0 0 0
829 0 0 0 0
830 0 0 0 0
831 0 0 0 0
832 0 0 0 0
833 0 0 0 0
834 0 0 0 0
835 0 0 0 0
836 0 0 0 0
837 0 0 0 0
838 0 0 0 0
839 0 0 0 0
840 0 0 0 0
841 0 0 0 0
842 0 0 0 0
843 0 0 0 0
844 0 0 0 0
845 1432.84 21.5474 1403.61 18.3455
846 1360.77 19.2311 1281.26 18.1809
847 1165.18 17.9843 1404.98 17.8099
848 1285.04 27.096 1388.79 23.2524
849 1420.73 18.4172 1517.87 17.2515
850 1461.88 18.8592 1470.02 16.1309
851 1430.32 18.2984 1451.29 15.8536
852 1463.04 19.7548 1437.78 16.2799
853 1471.13 18.8525 1512.58 16.4358
854 1460.28 19.7102 1464.82 17.4519
855 1437.04 19.1112 1501.89 17.3982
856 1411.69 18.7325 1447.63 16.0965
857 1422.99 19.8361 1419.51 15.746
858 1437.48 20.783 1462.63 16.4308
859 1500.27 22.6063 1498.85 17.3602
860 1500.23 24.6534 1503.21 18.6922
861 1489.48 25.6388 1487.32 19.5565
862 1482.02 26.677 1457.56 19.1949
863 0 0 0 0
864 0 0 0 0
865 0 0 0 0
866 0 0 0 0
867 0 0 0 0
868 0 0 0 0
869 0 0 0 0
870 0 0 0 0
871 0 0 0 0
872 0 0 0 0
873 0 0 0 0
874 0 0 0 0
875 0 0 0 0
876 0 0 0 0
877 0 0 0 0
878 0 0 0 0
879 0 0 0 0
880 0 0 0 0
881 0 0 0 0
882 0 0 0 0
883 0 0 0 0
884 0 0 0 0
885 0 0 0 0
886 0 0 0 0
887 0 0 0 0
888 0 0 0 0
889 0 0 0 0
890 0 0 0 0
891 0 0 0 0
892 0 0 0 0
893 0 0 0 0
894 0 0 0 0
895 0 0 0 0
896 0 0 0 0
897 0 0 0 0
898 0 0 0 0
899 0 0 0 0
900 0 0 0 0
901 0 0 0 0
902 0 0 0 0
903 0 0 0 0
904 1518.07 22.2654 1507.79 18.6303
905 1507.43 21.3773 1548.4 19.0887
906 1580.48 19.5983 1806.21 22.9794
907 1617.96 22.3088 1602.41 19.3084
908 1727.56 21.7504 1874.52 22.4195
909 1609.69 18.924 1620.76 18.2392
910 1525.31 17.0817 1607.84 18.6105
911 1532.91 17.6892 1591.59 17.37
912 1590.47 18.5838 1680.6 18.282
913 1748.73 21.4831 1818.48 22.6874
914 1727.95 20.4736 1742.91 18.3128
915 1539.91 25.8682 1442.64 32.7292
916 1736.55 32.4369 1640.37 39.819
917 0 0 0 0
918 0 0 0 0
919 0 0 0 0
920 0 0 0 0
921 0 0 0 0
922 0 0 0 0
923 0 0 0 0
924 0 0 0 0
925 0 0 0 0
926 0 0 0 0
927 0 0 0 0
928 0 0 0 0
929 0 0 0 0
930 0 0 0 0
931 0 0 0 0
932 1668.13 12.9177 1696.66 12.3346
933 1671.09 13.426 1720.21 13.1799
934 1787.43 13.7275 1779.3 13.6768
935 1707.86 12.9592 1700.92 12.9216
936 1692.2 13.2917 1718.45 13.7126
937 1685.3 13.4975 1698.58 14.2727
938 0 0 0 0
939 0 0 0 0
940 0 0 0 0
941 0 0 0 0
942 0 0 0 0
943 0 0 0 0
944 0 0 0 0
945 0 0 0 0
946 0 0 0 0
947 0 0 0 0
948 0 0 0 0
949 0 0 0 0
950 0 0 0 0
951 0 0 0 0
952 0 0 0 0
953 0 0 0 0
954 0 0 0 0
955 0 0 0 0
956 0 0 0 0
957 0 0 0 0
958 0 0 0 0
959 0 0 0 0
960 0 0 0 0
961 0 0 0 0
962 0 0 0 0
963 0 0 0 0
964 0 0 0 0
965 0 0 0 0
966 0 0 0 0
967 0 0 0 0
968 1608.36 12.9744 1604.58 12.5816
969 1538.17 12.0856 1557.25 11.992
970 1524.31 11.5573 1572.57 11.8884
971 1537.58 11.5512 1590.15 11.8935
972 1531.9 11.5468 1574.89 11.5573
973 1576.75 12.0913 1613.39 12.0039
974 1556.02 12.1423 1583.33 12.1365
975 1514.8 11.5474 1557 11.7084
976 1518.92 11.4226 1562.01 11.6391
977 1545.59 11.7498 1563.66 11.77
978 1523.68 11.6503 1558.1 11.6539
979 1547.64 11.9724 1571.1 12.0989
980 1491.92 11.6512 1523.7 11.9051
981 1502.29 11.3762 1522.42 11.4677
982 1465.25 10.9996 1535.73 11.6928
983 1496.29 11.6519 1511.78 11.5025
984 1503.04 11.8288 1513.52 11.7474
985 1504.48 12.2345 1533.75 12.3286
986 1467.36 11.8024 1493.47 11.8975
987 1470.85 11.5412 1495.18 11.6494
988 1463.75 11.5844 1511.57 11.9765
989 1474.41 11.8332 1482.21 11.7564
990 1518.53 12.4696 1524.09 12.2886
991 1466.24 12.474 1497.68 12.2859
992 1463.42 12.291 1496.29 12.1845
993 1460.6 11.9874 1491.68 11.9974
994 1481.63 12.1334 1506.21 12.0879
995 1526.55 12.5879 1547.08 12.2674
996 1545.32 13.1515 1535.99 12.5603
997 1499.66 12.8419 1506.67 12.7868
998 1490.95 12.6373 1515.39 12.057
999 1484.31 12.2157 1525.54 12.361
1000 1540.81 13.0286 1549.19 12.5447
1001 1544.4 13.1027 1546.91 12.4388
1002 1516.66 13.1347 1553.55 12.8916
1003 1487.44 12.7853 1555.82 12.885
1004 1515.86 12.8054 1565.29 12.3933
1005 1532.21 12.7838 1571.45 12.4029
1006 1527.4 12.7788 1582.95 12.4199
1007 1500.42 12.8084 1578.38 12.6695
1008 1537.18 13.8852 1576.01 13.225
1009 1521.37 13.1822 1562.56 12.6699
1010 1538.47 13.0184 1568.67 12.2448
1011 1538.15 13.3275 1577.49 12.4927
1012 1530.39 13.8013 1585.65 12.8679
1013 1575.02 15.7579 1580.1 13.8765
1014 0 0 0 0
1015 0 0 0 0
1016 0 0 0 0
1017 0 0 0 0
1018 0 0 0 0
1019 0 0 0 0
1020 0 0 0 0
1021 0 0 0 0
1022 0 0 0 0
1023 0 0 0 0
1024 0 0 0 0
1025 0 0 0 0
1026 0 0 0 0
1027 0 0 0 0
1028 0 0 0 0
1029 0 0 0 0
1030 0 0 0 0
1031 0 0 0 0
1032 0 0 0 0
1033 1701.82 21.6593 1731.66 18.8837
1034 1720.45 18.0279 1762.45 17.9807
1035 1774.53 21.499 1805 19.4424
1036 1784.27 20.254 1816.91 19.9046
1037 1738.91 15.4834 1775.43 14.7397
1038 1698.39 13.2075 1682.33 12.3078
1039 1749.38 15.4191 1727.92 13.7196
1040 0 0 0 0
1041 0 0 0 0
1042 1781.06 19.167 1798.82 18.6612
1043 1659.81 13.3564 1724.19 13.1747
1044 1656.67 12.384 1743.46 12.536
1045 1662.25 11.9115 1760.26 12.2991
1046 1639.04 12.0487 1754.56 12.3964
1047 1649.02 13.1041 1731.61 12.8572
1048 1656.37 13.1305 1749.64 12.8412
1049 1684.46 12.4743 1756.68 12.2847
1050 1673.55 14.7786 1773 14.8832
1051 1688.63 15.6513 1770.91 15.3953
1052 1668.42 12.6984 1736.27 12.3896
1053 1696.24 24.5559 1678.92 19.0757
1054 1749.19 20.1316 1711.31 15.3072
1055 1855.82 19.8289 1902.99 19.4643
1056 1848.04 18.9899 1826.2 17.6618
1057 1618.8 13.6539 1735.31 13.7829
1058 1655.94 14.3866 1707.17 13.936
1059 1728.82 13.3212 1747.74 12.5548
1060 1741.65 12.9134 1825.74 12.7525
1061 1844.97 23.7101 1920.84 26.4496
1062 1879.36 24.1796 1840.72 24.9474
1063 1713.98 12.7445 1760.12 12.4614
1064 1731.2 13.273 1763.92 12.8529
1065 1939.63 19.5485 1962.11 19.0946
1066 1976.68 19.2064 1947.75 18.0174
1067 0 0 0 0
1068 0 0 0 0
1069 1923.37 18.303 1915.51 18.2437
1070 1816.65 13.1677 1818.27 12.9242
1071 1818.43 12.456 1840.85 12.8335
1072 1839.67 12.714 1846.5 13.3481
1073 1786.78 12.1768 1773.58 12.3715
1074 1822.37 12.8378 1792.47 12.7751
1075 1859.01 13.8674 2037.06 17.6851
1076 1930.39 14.6693 2006.06 15.693
1077 0 0 0 0
1078 0 0 0 0
1079 0 0 0 0
1080 0 0 0 0
1081 0 0 0 0
1082 0 0 0 0
1083 0 0 0 0
1084 0 0 0 0
1085 0 0 0 0
1086 0 0 0 0
1087 0 0 0 0
1088 0 0 0 0
1089 0 0 0 0
1090 0 0 0 0
1091 0 0 0 0
1092 0 0 0 0
1093 0 0 0 0
1094 0 0 0 0
1095 1863.81 58.2353 1824.19 69.3581
1096 0 0 0 0
1097 0 0 0 0
1098 1814.19 21.1094 1837.04 22.7131
1099 1846.61 20.6429 1900.89 20.8914
1100 1836.99 21.8959 2015.9 27.0981
1101 1769.24 20.7181 2029.67 27.0837
1102 1642.17 21.3649 1725.49 29.9111
1103 0 0 0 0
1104 0 0 0 0
1105 0 0 0 0
1106 1784.95 41.8326 1667.87 34.0089
1107 1656.14 16.6703 1627.2 14.4026
1108 1634.69 16.0216 1679.68 15.084
1109 1668.13 14.6191 1654.18 14.0039
1110 0 0 0 0
1111 0 0 0 0
1112 1572.33 56.9435 1551.56 26.5096
1113 1534.28 13.3043 1528.91 12.6233
1114 1564.51 13.7094 1541.64 12.9938
1115 1578.05 13.9603 1569.07 13.3767
1116 1556.9 14.2688 1532.17 13.3167
1117 1479.89 13.4057 1465.67 12.8598
1118 1448.48 13.0531 1446.33 12.4329
1119 1431.3 12.7189 1452.74 12.4002
1120 0 0 0 0
1121 0 0 0 0
1122 1469.42 13.8146 1455.02 13.1917
1123 1414.14 13.2541 1378.18 12.3586
1124 1408.56 12.9687 1404.98 12.5717
1125 1418.7 13.0306 1415.74 12.7402
1126 0 0 0 0
1127 0 0 0 0
1128 1391.86 13.9036 1373.13 13.2115
1129 1362.91 12.8613 1356.85 12.6556
1130 0 0 0 0
1131 0 0 0 0
1132 1443.94 15.9739 1349.56 13.2682
1133 1352.84 13.2945 1342.64 12.7815
1134 0 0 0 0
1135 0 0 0 0
1136 1300.39 12.4137 1301.46 11.7181
1137 0 0 0 0
1138 0 0 0 0
1139 1296.33 13.7231 1264.73 12.7935
1140 1223.25 13.8386 1191.33 12.7523
1141 1222.21 13.6588 1175.36 12.3387
1142 1201.65 12.1867 1169.57 11.3915
1143 1164.24 12.5703 1069.92 10.7043
1144 1115.39 12.6931 987.711 10.6805
1145 1037.08 12.0422 979.749 11.2733
1146 990.18 11.226 907.721 9.48131
1147 1278.85 27.7008 1218.3 21.7641
1148 1446.88 32.2829 1228.25 21.5028
1149 1033.8 15.8979 881.734 11.1308
1150 976.953 14.0885 807.551 9.39507
1151 1024.96 11.6681 978.052 10.5381
1152 1067.63 11.4322 1038.12 10.2351
1153 1106.31 11.4989 1135.51 11.1697
1154 1116.49 11.935 1151.16 11.4001
1155 1131.98 12.3312 1178.99 11.8984
1156 1131.16 13.215 1184.41 12.5652
1157 1105.45 12.4397 1197.95 12.2718
1158 1044.71 11.9456 1184.4 11.9225
1159 0 0 0 0
1160 0 0 0 0
1161 0 0 0 0
1162 0 0 0 0
1163 0 0 0 0
1164 0 0 0 0
1165 0 0 0 0
1166 0 0 0 0
1167 0 0 0 0
1168 0 0 0 0
1169 0 0 0 0
1170 0 0 0 0
1171 0 0 0 0
1172 0 0 0 0
1173 0 0 0 0
1174 0 0 0 0
1175 0 0 0 0
1176 0 0 0 0
1177 0 0 0 0
1178 747.807 15.2907 618.999 10.4085
1179 982.937 20.0709 909.795 16.8742
1180 1162.15 21.589 872.03 12.1269
1181 1304.75 24.7708 870.83 11.0362
1182 1176.23 17.7107 1028.75 12.6887
1183 1190.68 15.7894 1056.65 11.7151
1184 1226.79 15.0717 1124.41 12.0018
1185 1289.74 14.2839 1267.67 12.7392
1186 1325.75 13.4449 1324.42 12.4251
1187 1300.03 13.2127 1286.7 12.0589
1188 1287.17 13.5726 1263.73 12.4316
1189 1289.42 14.3087 1215.55 11.9845
1190 1291.97 14.3465 1189.18 11.8991
1191 1313.42 13.7029 1210.86 11.4938
1192 1321.19 13.6516 1223.33 11.2025
1193 1323.68 13.654 1233.93 11.3549
1194 1277.99 12.9902 1259.98 11.4612
1195 1310.98 13.0959 1314.08 12.2664
1196 1346.8 12.8343 1361.77 12.4856
1197 1360.48 12.2796 1345.15 11.4962
1198 1358.2 12.7706 1257.53 10.7961
1199 1405.3 14.7913 1173.44 10.4827
1200 1361.32 16.3679 1050.57 9.91432
1201 1311.38 17.5626 982.463 10.2359
1202 1326.52 17.4566 1014.01 10.9845
1203 1296.77 18.5251 969.022 10.5849
1204 0 0 0 0
1205 0 0 0 0
1206 0 0 0 0
1207 992.612 17.6426 743.475 10.251
1208 0 0 3900.5 308.433
1209 0 0 3520.39 311.114
1210 1971.1 53.5286 1785.4 45.561
1211 0 0 0 0
1212 0 0 0 0
1213 0 0 0 0
1214 0 0 0 0
1215 0 0 0 0
1216 0 0 0 0
1217 0 0 0 0
1218 0 0 0 0
1219 0 0 0 0
1220 0 0 0 0
1221 1367.78 13.7857 1276.48 11.2813
1222 1376.55 14.6665 1231.71 11.4532
1223 1355.69 13.8331 1272.42 11.905
1224 1320 13.1062 1283.6 12.2163
1225 1289.12 12.2756 1298.35 11.9684
1226 1278.32 12.2322 1314.55 12.2929
1227 1336.45 18.5605 1230.17 17.3356
1228 1364.66 14.3978 1308.25 13.448
1229 1307.24 13.1712 1287.36 12.3872
1230 1303.9 13.1019 1242.54 11.8737
1231 1315.75 13.3376 1214.41 11.2586
1232 1335.51 14.1864 1217.12 11.3378
1233 1304.24 13.8129 1209.36 11.5248
1234 1319.69 14.5495 1210.95 11.774
1235 1311.96 14.7605 1213.62 12.2177
1236 1295.16 14.0541 1204.85 11.7574
1237 1302.51 13.6668 1200.93 11.5377
1238 1295.66 13.2117 1219.55 11.556
1239 1287.45 12.9205 1240.79 11.792
1240 1287.29 13.2486 1247.14 12.3342
1241 1285.96 13.4118 1201.52 11.75
1242 1256.92 12.9687 1167.2 11.3731
1243 1250.86 13.5486 1158.45 11.3348
1244 1198.82 13.0945 1105 11.1401
1245 1201.87 14.338 1010.55 10.7324
1246 1322.69 18.5779 927.349 10.0429
1247 937.076 11.6694 855.731 10.4491
1248 354.97 4.58651 332.808 3.96512
1249 762.62 7.56085 756.996 7.16108
1250 1005.8 10.8437 977.372 10.0026
1251 1219.17 14.6377 1056.71 11.1299
1252 1206.53 13.9109 1129.1 12.2734
1253 1287.53 15.1693 1128.44 11.8103
1254 1224.72 14.3776 1095.92 11.3578
1255 1279.33 15.2212 1153.47 12.2432
1256 1287.12 14.8418 1184.17 12.6261
1257 1282.6 14.0282 1223.69 12.5098
1258 1294.51 14.2462 1209.29 12.2216
1259 1306.02 15.314 1187.2 12.2227
1260 0 0 0 0
1261 0 0 0 0
1262 0 0 0 0
1263 0 0 0 0
1264 0 0 0 0
1265 0 0 0 0
1266 0 0 0 0
1267 0 0 0 0
1268 0 0 0 0
1269 0 0 0 0
1270 0 0 0 0
1271 0 0 0 0
1272 0 0 0 0
1273 0 0 0 0
1274 0 0 0 0
1275 0 0 0 0
1276 0 0 0 0
1277 0 0 0 0
1278 0 0 0 0
1279 0 0 0 0
1280 0 0 0 0
1281 0 0 0 0
1282 0 0 0 0
1283 0 0 0 0
1284 0 0 0 0
1285 0 0 0 0
1286 0 0 0 0
1287 0 0 0 0
1288 0 0 0 0
1289 0 0 0 0
1290 1426.74 20.0928 1346.54 16.0451
1291 1420.97 19.0649 1295.98 14.429
1292 1410.73 17.9385 1265.56 13.6035
1293 1319.08 15.6946 1264.83 13.3162
1294 1295.31 14.4117 1297.86 13.0675
1295 1347.88 14.7964 1314.03 12.7631
1296 1291.51 13.3558 1373.48 13.5809
1297 1316.98 13.6538 1324.49 12.8217
1298 1316.17 13.6482 1325.44 13.2814
1299 1293.43 13.4868 1294.93 12.5937
1300 1317.15 13.1563 1355.02 13.0707
1301 1363.74 13.8633 1356.96 12.7959
1302 1326.59 13.2557 1347.74 12.8454
1303 1346.77 13.4316 1371.45 13.0867
1304 1319.45 13.5581 1374.43 13.7077
1305 1323.88 13.5107 1347.8 13.1405
1306 1389.85 13.7552 1337.34 12.4091
1307 1360.66 13.0264 1359.69 12.6906
1308 1385.14 13.5214 1388.45 12.8561
1309 1379.73 13.5655 1348.5 12.712
1310 1354.42 13.5277 1341.52 12.7848
1311 1351.4 13.0964 1319.84 12.2138
1312 1354.79 12.7411 1357.56 12.2336
1313 1388.13 12.7322 1374.74 12.3387
1314 1402.22 13.385 1393.7 12.6732
1315 1363.73 13.1247 1367.96 12.6187
1316 1325.34 13.0688 1353.61 12.7454
1317 1367.51 13.2442 1404.1 13.3979
1318 1400.31 13.0404 1425.29 12.8459
1319 1424.3 13.2121 1434.79 12.6902
1320 1395.18 13.1907 1402.24 12.5532
1321 1355.34 13.0892 1406.9 13.0357
1322 1351.93 13.0644 1384.59 12.6766
1323 1408.23 13.123 1433.52 12.6566
1324 1437.3 12.7419 1453.19 12.6419
1325 1415.07 12.5496 1450.9 12.788
1326 1413.13 13.0144 1433.9 12.8505
1327 1389.72 13.2295 1354.88 12.3079
1328 1402.11 13.0546 1423.67 12.6775
1329 1440.47 12.9297 1467.77 12.8381
1330 1450.5 12.8839 1435.26 12.5957
1331 1440.8 13.4396 1428.3 12.9064
1332 1361.33 12.8345 1356.95 12.6596
1333 1332.15 12.3866 1355.57 12.368
1334 1379.01 12.2724 1401.5 12.4005
1335 1426.05 12.7213 1438.16 12.6546
1336 1384.7 12.5065 1367.78 11.9292
1337 1384.69 13.2412 1322.57 11.9821
1338 1353.06 13.6151 1287.49 11.9816
1339 0 0 0 0
1340 0 0 0 0
1341 0 0 0 0
1342 0 0 0 0
1343 0 0 0 0
1344 0 0 0 0
1345 0 0 0 0
1346 0 0 0 0
1347 0 0 0 0
1348 0 0 0 0
1349 1341.59 10.1062 1337.97 10.3985
1350 1330.31 9.81306 1299.47 9.75431
1351 1380.77 9.97187 1344.47 9.8327
1352 1352.88 9.5781 1365.6 10.1165
1353 1355.53 10.1134 1338.73 10.179
1354 1317.99 10.0123 1314.16 10.2398
1355 1316.87 10.0157 1296.36 10.0056
1356 1296.19 9.526 1315.18 9.79166
1357 1342.76 9.77487 1317.12 9.81037
1358 1353.12 10.2415 1322.92 10.1252
1359 1328.63 10.4046 1309.85 10.1853
1360 1296.12 10.1553 1274.08 10.0518
1361 1287.79 9.91286 1256.6 9.75511
1362 1304.74 9.89938 1289.66 9.63896
1363 1311.39 10.1059 1295.14 10.2078
1364 1291.67 10.1786 1270.59 10.3246
1365 1237 10.0021 1229.73 10.0434
1366 1246.67 10.1334 1248.6 10.465
1367 1276.24 10.1844 1215.35 9.57239
1368 1257.41 9.9988 1231.54 9.70181
1369 1240.93 10.0322 1236.91 10.4554
1370 1216.27 10.3054 1187.72 9.99365
1371 1180.84 9.78805 1173.31 10.0058
1372 1181.46 9.70169 1195.99 10.2281
1373 1225.54 10.1485 1173.47 9.61231
1374 1212.07 10.3087 1190.77 10.2255
1375 1200.66 10.6842 1172.6 10.6255
1376 1172.53 10.4298 1165.25 10.5079
1377 1152.81 10.1053 1164.64 10.4453
1378 1172.03 10.1292 1175.54 10.5254
1379 1172.21 10.2257 1140.17 10.0152
1380 1161.02 10.774 1100.87 10.4518
1381 1155.54 11.1087 1085.81 10.2977
1382 1158.42 10.5493 1139.2 10.5157
1383 1115.23 9.8406 1125.95 10.3928
1384 1117.08 9.76297 1133.48 10.3973
1385 1139.81 10.3603 1121.08 10.331
1386 1108.76 10.2459 1140.64 11.0461
1387 1120.23 10.3698 1112.6 10.527
1388 1130.49 10.3869 1110.08 10.1799
1389 1122.32 10.2702 1128.04 10.6051
1390 1112.91 10.0764 1098.45 10.1059
1391 1101.47 10.2031 1091.74 10.3787
1392 1101.86 10.2878 1105.61 10.7342
1393 1117.55 10.4924 1122.83 10.6302
1394 1099.94 10.0021 1120.47 10.4829
1395 1119.22 10.3853 1089.67 10.4077
1396 1091.14 10.2207 1080.79 10.2182
1397 1114.34 10.8208 1075.8 10.3311
1398 1105.02 10.7715 1099.32 10.6171
1399 1092.77 10.2044 1101.27 10.4419
1400 1102.64 10.5836 1096.7 10.85
1401 1089.78 10.4246 1069.59 10.4301
1402 1053.6 10.1059 1056.38 10.3008
1403 1059.43 10.3579 1063.13 10.5838
1404 1070.41 10.3566 1086.96 10.6005
1405 1088.72 10.3947 1083.45 10.6326
1406 1060.04 10.3038 1053.45 10.4386
1407 1049.73 10.1089 1043.92 10.1851
1408 1062.68 10.6703 1048.09 10.5851
1409 1076.34 10.556 1058.44 10.56
1410 1056.48 10.3349 1066.41 10.5679
1411 1073.09 10.5422 1052.39 10.3174
1412 1038.5 10.1568 1057.04 10.5533
1413 1045.85 10.2302 1034.33 10.225
1414 1044.66 10.3121 1042.62 10.4806
1415 1089.12 10.6887 1083.86 10.7687
1416 1071.82 10.43 1090.96 10.603
1417 1085.95 10.4615 1060.48 10.2982
1418 1058.7 10.2043 1047.39 10.0777
1419 1040.77 10.0344 1070.49 10.5024
1420 1104.6 11.4398 1113.51 11.6706
1421 1124.05 10.6843 1110.71 10.628
1422 1122.28 10.6578 1103.31 10.3248
1423 1120.44 10.6168 1107.94 10.5045
1424 1108.91 10.4891 1081.95 10.1015
1425 1111.3 10.6069 1115.87 10.5496
1426 1155.35 11.0321 1174.57 11.1798
1427 1173.99 11.088 1143.17 10.5461
1428 1145.23 10.4799 1128.54 10.3278
1429 1149.88 10.7759 1100.35 9.94493
1430 1123.73 10.5091 1122.19 10.2732
1431 1168.22 11.1924 1146.41 10.5452
1432 1178.21 10.8249 1159.14 10.5163
1433 1166.03 10.8182 1164.69 10.5457
1434 1166.03 10.8081 1141.9 10.3116
1435 1179.51 11.05 1145.47 10.5163
1436 1154.15 10.8653 1133.72 10.2399
1437 1224.37 11.7188 1172.13 10.6013
1438 1180.7 10.7995 1167.6 10.2039
1439 1192.93 11.0169 1166.86 10.2465
1440 1154.79 10.4649 1174.02 10.4579
1441 1164.59 10.6756 1176.98 10.6173
1442 1183.5 11.1018 1186.59 10.623
1443 1212.05 11.1992 1202.09 10.609
1444 1198.3 10.8291 1200.06 10.5611
1445 1195.41 10.7384 1182.25 10.2344
1446 1218.85 11.0904 1194.45 10.4933
1447 1197.46 10.847 1205.9 10.7071
1448 1215.38 10.8174 1210.02 10.558
1449 1231.98 10.9583 1212.19 10.4194
1450 1232.66 10.7553 1232.25 10.6031
1451 1252.76 10.9291 1207.53 10.1466
1452 1255.21 11.185 1215.74 10.4511
1453 1237.71 10.9345 1238.64 10.7141
1454 1257.14 10.7512 1254.25 10.6321
1455 1271.12 10.5904 1278.21 10.523
1456 1287.75 10.7576 1293.62 10.7959
1457 1262.17 10.5692 1259.06 10.319
1458 1285.12 11.1698 1258.85 10.5187
1459 1298.3 10.9313 1314.21 10.9986
1460 1315.89 10.7419 1324.37 10.7334
1461 1325.72 10.8217 1305.46 10.3718
1462 1314.93 10.6967 1305.56 10.5059
1463 1293.29 10.3433 1294.49 10.4079
1464 1311.26 10.6252 1311.97 10.7785
1465 1340.96 10.7179 1347.33 10.8268
1466 1319.86 10.3632 1337.92 10.5319
1467 0 0 0 0
1468 0 0 0 0
1469 0 0 0 0
1470 0 0 0 0
1471 0 0 0 0
1472 0 0 0 0
1473 0 0 0 0
1474 0 0 0 0
1475 0 0 0 0
1476 0 0 0 0
1477 1287.85 10.0879 1303.24 10.6048
1478 1295.36 9.69978 1335.52 10.6362
1479 1350.5 10.4798 1321.6 10.2847
1480 1333.84 10.5571 1324.12 10.7373
1481 1339.51 10.5597 1329.93 10.9802
1482 1326.51 10.2513 1346.19 10.8119
1483 1336.31 10.2784 1354.78 10.9145
1484 1311.52 10.209 1328.79 10.7276
1485 1073.06 7.91569 1323.05 11.176
1486 1332.86 10.7372 1316.35 10.8281
1487 1355.7 10.907 1341.67 11.22
1488 1332.64 10.5045 1353.98 11.3011
1489 1326.71 10.6601 1353.14 11.2504
1490 1307.92 10.3629 1344.13 11.3578
1491 1315.47 10.5404 1337.61 11.4843
1492 1326.31 10.7948 1328.83 11.4918
1493 1338.58 10.9968 1346.09 11.7273
1494 1352.82 11.266 1352.32 11.8916
1495 1353.77 11.2209 1321.05 11.2838
1496 1351.86 11.3138 1318.67 11.6251
1497 1333.37 11.2833 1296.15 11.5052
1498 1346.75 11.5869 1320.36 12.0851
1499 1349.62 11.7193 1329.54 12.0936
1500 1357.87 12.1379 1323.41 12.3458
1501 1312.22 11.5004 1282.39 11.8786
1502 1314.21 11.6762 1301.32 12.4528
1503 1324.99 11.7798 1292.2 12.1318
1504 1329.96 12.1373 1310.97 12.6622
1505 1345.07 12.7291 1297.44 12.4364
1506 1329.94 12.7388 1313.71 13.0269
1507 1322.82 12.818 1298.6 12.8374
1508 1329.45 13.0185 1288.07 12.672
1509 1360.56 13.7778 1305.62 13.1819
1510 1333.08 13.3873 1287.43 12.919
1511 1299.81 13.4834 1279.4 13.0775
1512 1313.35 13.4397 1280.63 13.0218
1513 1302.05 13.5204 1262.17 12.7006
1514 1302.25 13.6797 1239.95 12.4438
1515 1236.41 12.7055 1234.71 12.3496
1516 1222.67 12.4326 1197.81 11.6873
1517 1190.32 12.0924 1208.49 11.915
1518 1165.1 11.5237 1207.79 11.7312
1519 1181.27 11.5035 1198.89 11.5928
1520 1161.73 11.2951 1158.09 11.0743
1521 1180.79 11.4709 1140.88 10.7395
1522 1160.21 11.0747 1132.7 10.6038
1523 1159.72 11.3257 1162.08 11.1969
1524 1170.1 11.2832 1148.38 10.608
1525 1134.62 10.6202 1123.98 10.1603
1526 1144.74 11.0078 1098.57 10.0543
1527 1158.52 11.1507 1127.35 10.4213
1528 1139.56 11.0782 1135.36 10.8384
1529 1152.53 11.1786 1119.13 10.4695
1530 936.203 11.9156 1214.26 14.6282
1531 984.738 9.55123 1280.24 15.0128
1532 960.147 9.01237 962.932 8.72965
1533 694.989 6.42278 773.098 6.96921
1534 1046.77 10.0864 1053.09 10.0828
1535 1135.41 11.3766 1134.68 11.1586
1536 1100.22 12.5134 1191.37 13.9427
1537 1064.2 10.3349 1081.19 10.5195
1538 1089.09 10.6713 1096.86 10.8365
1539 1093.03 11.1052 1147.11 12.2002
1540 1105.5 11.442 1171.7 12.2896
1541 1100.76 11.1497 1103.08 11.0601
1542 1154.53 11.9557 1152.39 11.9207
1543 1034.91 12.8654 1091.59 15.0468
1544 1130.59 12.2327 1027.42 10.2368
1545 1312.65 17.9238 1188.95 14.9517
1546 1026.76 11.0544 1056.69 13.8303
1547 1696.85 29.4763 1196.64 17.8001
1548 1378.33 17.8728 1127.63 13.1606
1549 1141.59 11.1796 1106.13 10.9101
1550 1118.33 10.7221 1109.42 10.8208
1551 1180.76 12.6831 1165.34 13.1278
1552 1087.33 10.6028 1152.32 12.1481
1553 0 0 0 0
1554 0 0 0 0
1555 0 0 0 0
1556 0 0 0 0
1557 0 0 0 0
1558 0 0 0 0
1559 0 0 0 0
1560 0 0 0 0
1561 0 0 0 0
1562 708.14 8.97236 714.681 9.33594
1563 1079.18 10.8858 1138.51 12.9324
1564 942.235 9.28936 1042.72 11.8909
1565 965.064 8.93928 1023.44 10.3944
1566 897.67 8.69524 971.361 10.6595
1567 986.676 9.30144 980.117 9.46396
1568 1046.81 11.0294 938.868 9.37719
1569 1067.49 12.0917 1052.46 13.0443
1570 1035.58 10.5748 1056.52 11.6064
1571 1038.13 9.76265 1063.34 10.5215
1572 812.17 8.21356 939.864 11.7306
1573 998.931 10.3487 932.542 9.59133
1574 0 0 0 0
1575 0 0 0 0
1576 0 0 0 0
1577 1005.05 9.62309 992.326 10.0557
1578 825.717 8.12919 845.409 9.51684
1579 1085.92 10.0963 1046.25 9.77093
1580 1116.62 11.7634 1056.6 11.2795
1581 948.445 10.0606 1020.45 11.7611
1582 1108.46 16.8448 1182.33 22.3329
1583 1002.06 9.52328 1052.58 10.396
1584 998.31 9.60314 960.087 9.32077
1585 1139.23 11.2891 1075.22 10.3804
1586 1157.41 12.3482 1100.83 11.4788
1587 1117.44 10.2589 1146.19 10.7745
1588 911.757 10.7788 1048.57 14.6219
1589 665.811 10.5154 896.531 22.0397
1590 659.915 8.75521 747.816 11.8527
1591 1284 17.1241 1394.56 19.8135
1592 1235.78 12.3929 1218.5 12.3027
1593 1169.53 10.4002 1185.21 10.7434
1594 1179.24 10.5874 1215.7 11.6777
1595 0 0 0 0
1596 0 0 0 0
1597 0 0 0 0
1598 0 0 0 0
1599 0 0 0 0
1600 0 0 0 0
1601 0 0 0 0
1602 0 0 0 0
1603 0 0 0 0
1604 0 0 0 0
1605 594.111 6.30127 692.418 7.13713
1606 569.578 4.65645 735.814 6.45492
1607 1013.86 9.81765 1056.52 10.1511
1608 1187.51 11.863 1143.62 10.8592
1609 1130.27 10.2398 1149.3 10.4743
1610 1134.52 10.4024 1145.9 10.4395
1611 1115.93 10.4527 1140.23 10.566
1612 1115.48 10.5401 1126.29 10.5789
1613 1119.67 10.2645 1132.77 10.3879
1614 1141.84 10.7849 1146.97 10.8583
1615 1133.57 10.6961 1121.14 10.5579
1616 1111.3 10.6789 1104.99 10.1951
1617 1075.01 10.6295 1073.38 10.3469
1618 0 0 0 0
1619 0 0 0 0
1620 0 0 0 0
1621 0 0 0 0
1622 0 0 0 0
1623 0 0 0 0
1624 0 0 0 0
1625 0 0 0 0
1626 0 0 0 0
1627 1063.76 10.604 1034.23 10.2009
1628 1059.39 10.8215 1026.68 10.4169
1629 1068.16 11.0447 1027.69 10.5899
1630 1082.51 11.1925 1044.89 10.8429
1631 1054.15 11.1577 1027.62 10.7815
1632 1020.17 10.6404 1018.65 10.5988
1633 1035.4 11.1743 998.73 10.477
1634 1016.26 10.7408 1002.02 10.6395
1635 1028.26 11.1286 1006.6 10.8471
1636 1034.42 11.2784 997.218 11.0285
1637 993.553 11.0562 954.138 10.5378
1638 978.651 10.6087 980.272 10.8011
1639 960.696 10.2045 951.252 10.3362
1640 999.888 11.0364 960.559 10.7496
1641 960.89 10.9466 978.691 11.5667
1642 996.428 11.4561 955.378 11.3056
1643 964.338 10.9151 938.019 10.6925
1644 958.369 10.5563 952.56 10.7058
1645 951.437 10.7789 911.86 10.181
1646 935.203 10.7798 908.526 10.6265
1647 892.498 10.0715 881.73 10.2873
1648 923.273 10.7533 887.137 10.5097
1649 922.713 10.5169 895.61 10.3544
1650 926.891 10.5343 902.33 10.3659
1651 921.536 10.561 912.609 10.7442
1652 917.947 11.022 906.87 11.1096
1653 928.914 11.1486 918.5 11.5728
1654 911.941 10.7042 884.68 10.6895
1655 855.889 9.78665 871.418 10.2485
1656 912.052 10.5464 883.281 10.5178
1657 909.657 10.8596 899.181 11.0133
1658 896.054 10.7199 900.415 11.1758
1659 905.583 10.7519 895.521 11.167
1660 905.65 10.6148 905.843 10.9275
1661 908.725 10.4076 910.257 10.7245
1662 902.472 10.6217 913.962 11.0872
1663 918.514 11.2532 881.467 10.7649
1664 906.645 10.7662 892.83 10.9988
1665 903.763 10.6833 906.01 11.0874
1666 905.574 10.3428 881.73 10.1496
1667 926.537 10.7451 891.349 10.3522
1668 910.473 10.638 896.37 10.7203
1669 900.67 10.5236 881.782 10.4595
1670 916.165 10.6407 917.828 10.9141
1671 932.786 10.8314 901.984 10.5513
1672 914.894 10.1572 919.004 10.4297
1673 926.71 10.4711 923.467 10.5734
1674 929.294 10.5665 934.988 10.9602
1675 926.031 10.2858 949.408 11.1233
1676 920.643 10.3212 941.64 11.1207
1677 947.306 10.4371 930.574 10.4184
1678 956.851 10.4567 969.367 10.8631
1679 964.017 10.6225 948.936 10.6306
1680 959.936 10.6521 961.199 10.7649
1681 979.242 10.8241 967.575 10.7945
1682 974.613 10.8052 944.281 10.4649
1683 965.444 10.1707 975.637 10.6002
1684 962.067 9.92793 982.804 10.4659
1685 990.438 10.4179 967.103 10.4519
1686 980.711 10.3258 1007.97 11.1041
1687 997.485 10.8061 1008.42 11.0791
1688 994.395 10.7129 989.491 10.5666
1689 1008.72 10.1847 996.381 10.2918
1690 1024.36 10.5997 1009.21 10.3686
1691 988.617 9.81285 1043.85 11.0295
1692 1040 11.07 997.078 10.2314
1693 1027.87 10.7118 1026.72 10.7356
1694 1015.89 10.3807 1043.25 10.7342
1695 1033.44 10.3826 1019.82 10.0615
1696 1065.03 10.8292 1026.59 10.1729
1697 1042.59 10.4835 1038.87 10.394
1698 1043.12 10.6573 1052.51 10.5645
1699 1040.04 10.2466 1068.08 10.6617
1700 1064.27 10.3437 1052.89 10.035
1701 1062.52 10.1893 1074.92 10.1926
1702 1072.57 10.3043 1067.29 10.4072
1703 1065.89 10.35 1070.93 10.3918
1704 1075.19 10.3806 1089.99 10.5535
1705 1083.44 10.2498 1101.1 10.4972
1706 1084.04 10.2607 1101.65 10.3228
1707 1082.29 9.92764 1108.02 10.2067
1708 1108.66 10.4836 1125.03 10.3982
1709 1094.21 10.0782 1122 10.4721
1710 1139.31 11.1894 1135.73 10.8614
1711 1060.15 16.2076 971.784 15.6719
1712 1050.72 15.4473 1003.48 14.8098
1713 1083.99 15.8483 1073.46 14.6115
1714 996.911 12.1462 1020.04 12.5695
1715 1050.98 12.8221 1095.74 13.9093
1716 1044.56 12.7201 1095.21 13.8511
1717 1044.39 12.6642 997.323 12.6587
1718 1027.34 12.2158 1035.63 11.9261
1719 1049.85 12.4965 1038.95 11.9625
1720 1042.68 12.3004 1044.18 12.3813
1721 1013.68 12.0835 992.162 11.8009
1722 988.64 11.7142 951.418 11.7846
1723 0 0 0 0
1724 0 0 0 0
1725 0 0 0 0
1726 0 0 0 0
1727 0 0 0 0
1728 0 0 0 0
1729 0 0 0 0
1730 0 0 0 0
1731 0 0 0 0
1732 0 0 0 0
1733 0 0 0 0
1734 0 0 0 0
1735 1189.13 20.1993 1313.51 18.6588
1736 1148.43 10.6886 1123.55 10.363
1737 1114.8 10.5094 1123.15 10.5243
1738 1099.76 10.3574 1100.42 10.4439
1739 1102.05 10.4793 1088.03 10.1381
1740 1091.77 10.2866 1093.76 10.2866
1741 0 0 0 0
1742 0 0 0 0
1743 0 0 0 0
1744 0 0 0 0
1745 0 0 0 0
1746 1077.36 10.4884 1080.66 10.7548
1747 1079.33 10.6707 1056.96 10.4582
1748 1083.23 11.351 1043.15 10.6392
1749 1025.21 10.4621 1013.09 10.5376
1750 1024.82 10.3302 1034.82 10.6944
1751 1007.76 11.1409 1025.57 11.0746
1752 1057.4 10.9091 1034.82 10.9851
1753 1048.74 11.209 1020.01 11.1896
1754 1019.8 11.1689 983.603 10.8763
1755 975.905 10.2618 1009.28 11.3185
1756 1019.77 11.1187 1001.05 10.8468
1757 1019.65 11.1624 970.252 10.4379
1758 991.352 10.946 981.11 10.9603
1759 979.139 11.1404 946.891 11.0012
1760 951.88 10.7535 925.523 10.7943
1761 945.04 10.5015 944.291 10.7705
1762 975.972 11.2991 945.406 10.9147
1763 944.05 10.9301 927.633 11.0463
1764 953.448 11.2734 932.001 11.4176
1765 931.95 11.196 923.144 11.406
1766 886.804 10.2133 909.557 11.1446
1767 913.153 10.7927 895.529 10.737
1768 891.572 11.0084 880.265 11.2406
1769 917.134 11.1979 885.077 11.059
1770 884.536 10.5871 885.995 11.263
1771 888.929 10.8944 861.583 10.9618
1772 883.833 10.9073 877.501 11.2368
1773 873.064 10.9146 875.332 11.1798
1774 859.717 10.8493 857.019 11.191
1775 893.765 11.4208 857.45 11.4282
1776 859.717 11.1712 832.262 11.0399
1777 856.041 11.1381 842.055 11.3767
1778 836.578 10.8138 830.457 11.0032
1779 849.964 11.413 826.023 11.1185
1780 837.821 11.2842 817.095 11.2571
1781 831.677 11.1131 817.916 11.342
1782 811.87 10.7737 808.62 11.1964
1783 815.973 11.0715 814.217 11.4654
1784 838.651 11.6732 819.961 11.6422
1785 827.454 11.8394 812.018 11.7947
1786 818.914 11.4197 789.823 11.6168
1787 808.479 11.3181 806.609 11.6988
1788 789.341 10.9041 805.124 11.6945
1789 797.408 11.4073 792.152 11.4571
1790 792.161 11.3995 770.549 11.3122
1791 779.315 11.4665 780.332 11.6773
1792 788.456 11.2956 763.102 11.2523
1793 764.96 10.758 758.72 10.8947
1794 783.466 10.9916 768.26 10.8641
1795 815.343 12.0114 787.195 11.7899
1796 793.773 11.9187 768.282 11.4011
1797 777.987 11.3462 768.34 11.4449
1798 787.96 11.4595 766.492 11.0921
1799 786.416 11.1327 756.78 10.6642
1800 800.76 11.5256 781.516 11.1679
1801 820.928 12.0992 787.346 11.7304
1802 777.338 11.4713 784.594 11.7895
1803 792.397 11.3927 792.795 11.6579
1804 778.707 10.8691 798.67 11.6141
1805 0 0 0 0
1806 0 0 0 0
1807 0 0 0 0
1808 0 0 0 0
1809 0 0 0 0
1810 0 0 0 0
1811 0 0 0 0
1812 0 0 0 0
1813 0 0 0 0
1814 0 0 0 0
1815 0 0 0 0
1816 0 0 0 0
1817 0 0 0 0
1818 0 0 0 0
1819 0 0 0 0
1820 0 0 0 0
1821 0 0 0 0
1822 0 0 0 0
1823 0 0 0 0
1824 552.787 22.9824 523.998 21.3
1825 871.299 12.2701 887.477 12.5405
1826 878.671 11.9898 880.125 11.8705
1827 885.135 11.8244 894.268 11.9204
1828 882.07 11.9404 907.533 12.4105
1829 908.451 12.8975 892.556 12.4102
1830 860.403 11.9884 884.97 12.3587
1831 894.45 12.2598 918.556 12.6961
1832 890.671 11.7403 914.919 12.2952
1833 939.796 12.7408 892.078 11.4369
1834 902.116 12.3866 916.78 12.3308
1835 920.042 13.0881 897.357 12.16
1836 917.142 12.8725 927.303 12.8867
1837 938.796 13.092 929.883 12.5243
1838 942.366 12.9147 950.63 12.6644
1839 897.933 12.1531 965.361 12.9357
1840 945 13.4681 907.863 12.1716
1841 912.006 12.7579 929.247 12.6697
1842 946.291 13.5133 941.006 12.7509
1843 946.315 12.977 935.634 12.2133
1844 936.813 12.809 964.356 12.749
1845 0 0 0 0
1846 0 0 0 0
1847 0 0 0 0
1848 0 0 0 0
1849 0 0 0 0
1850 0 0 0 0
1851 0 0 0 0
1852 0 0 0 0
1853 0 0 0 0
1854 0 0 0 0
1855 0 0 0 0
1856 0 0 0 0
1857 0 0 0 0
1858 0 0 0 0
1859 0 0 0 0
1860 0 0 0 0
1861 0 0 0 0
1862 0 0 0 0
1863 0 0 0 0
1864 0 0 0 0
1865 0 0 0 0
1866 0 0 0 0
1867 876.001 11.5627 887.829 11.9825
1868 899.808 12.212 895.163 12.195
1869 878.513 11.7839 905.992 12.5738
1870 912.125 12.5752 916.769 13.1632
1871 888.074 12.2551 892.553 12.9058
1872 906.093 12.5278 900.222 12.6623
1873 896.155 12.4037 892.992 12.2583
1874 891.812 12.1144 920.609 13.0365
1875 905.432 12.5548 906.602 12.969
1876 899.55 12.7245 907.348 13.337
1877 885.802 12.5393 903.595 13.4596
1878 846.341 11.5055 880.654 12.3248
1879 897.871 12.6377 877.833 12.5052
1880 893.58 12.636 904.579 13.2018
1881 879.008 28.4958 702.493 16.6864
1882 844.172 13.584 834.333 13.187
1883 887.318 19.7352 857.935 14.9475
1884 859.88 12.2216 847.981 12.1368
1885 895.079 13.3081 851.916 12.8419
1886 844.033 12.3613 858.061 13.276
1887 866.57 13.3401 832.576 12.7791
1888 836.145 12.9693 809.608 12.556
1889 835.579 12.6833 854.52 13.631
1890 769.876 18.9024 813.607 13.4489
1891 584.354 31.1966 740.14 24.9988
1892 1136.51 208.251 942.288 56.0813
1893 835.531 13.361 814.644 13.2518
1894 812.548 12.906 813.881 13.6206
1895 860.461 14.3791 814.88 13.422
1896 855.443 16.6782 756.62 14.2892
1897 912.892 54.071 623.865 40.7337
1898 803.205 12.7966 787.51 12.9527
1899 821.262 13.7306 809.842 13.8579
1900 808.975 14.5034 829.354 15.5253
1901 811.103 13.2551 786.779 12.9609
1902 799.653 13.1943 783.949 13.1877
1903 791.62 13.0075 750.474 12.3421
1904 777.081 12.635 764.437 12.7967
1905 772.797 12.7783 759.673 13.1218
1906 799.85 13.5593 782.501 13.306
1907 773.934 12.6715 799.993 14.046
1908 779.974 12.9534 747.332 12.4839
1909 769.024 12.6366 747.074 12.6336
1910 772.509 12.7696 771.678 13.3635
1911 769.995 13.3536 779.561 13.9272
1912 773.957 13.1541 792.553 13.6924
1913 780.433 13.3603 753.954 12.8218
1914 758.24 12.3178 756.934 13.046
1915 776.028 13.0245 768.46 13.2268
1916 756.748 12.7433 786.156 14.018
1917 771.195 13.4978 786.479 14.2116
1918 771.793 13.2815 768.526 13.3022
1919 0 0 0 0
1920 0 0 0 0
1921 0 0 0 0
1922 0 0 0 0
1923 0 0 0 0
1924 0 0 0 0
1925 0 0 0 0
1926 0 0 0 0
1927 0 0 0 0
1928 0 0 0 0
1929 789.728 13.4492 775.089 12.8145
1930 771.947 12.6812 765.72 12.3725
1931 798.168 13.1445 778.202 12.3029
1932 800.233 13.0056 784.185 12.4328
1933 763.354 12.3345 792.523 12.8248
1934 777.842 12.3465 822.008 13.25
1935 818.022 13.2509 820.064 12.888
1936 814.581 12.7133 834.238 12.8529
1937 798.742 12.1625 815.97 12.3268
1938 837.127 13.4317 804.152 11.9171
1939 814.176 12.8226 828.236 12.6671
1940 842.606 13.1445 848.447 12.7387
1941 812.133 12.1995 840.538 12.1147
1942 815.15 12.0716 859.024 12.3212
1943 838.122 12.6635 867.803 12.5765
1944 852.094 13.0813 845.991 12.1886
1945 871.325 13.5317 860.811 12.3604
1946 874.423 12.867 878.279 12.2545
1947 860.397 12.319 891.628 12.3598
1948 849.372 11.8863 864.714 11.6856
1949 865.385 12.4086 879.469 12.3202
1950 859.011 12.419 872.773 12.1579
1951 860.719 12.0608 886.698 12.0719
1952 883.034 12.204 889.538 11.7984
1953 855.453 11.4522 886.388 11.6556
1954 870.877 11.9968 905.778 12.1451
1955 867.381 12.1129 892.817 12.0847
1956 858.594 12.4673 887.137 12.1521
1957 887.604 12.3332 921.051 12.429
1958 861.345 11.558 897.207 11.8167
1959 866.247 11.5054 889.863 11.469
1960 902.231 12.1754 915.498 12.0403
1961 890.462 12.0447 932.891 12.5547
1962 889.071 11.9898 913.526 11.8282
1963 910.594 11.8619 926.924 11.9135
1964 926.29 12.081 934.654 11.9171
1965 909.516 11.6504 930.483 11.7173
1966 914.002 11.7362 909.597 11.3389
1967 930.203 12.1321 931.715 11.9353
1968 949.465 12.2257 947.277 11.8684
1969 920.257 11.4096 942.786 11.501
1970 950.503 11.9938 970.784 12.0454
1971 952.831 12.0782 975.358 12.285
1972 925.337 11.6841 965.427 12.0217
1973 939.679 11.92 985.012 12.4772
1974 909.686 12.9844 1060.66 16.0538
1975 0 0 0 0
1976 0 0 0 0
1977 0 0 0 0
1978 0 0 0 0
1979 0 0 0 0
1980 0 0 0 0
1981 0 0 0 0
1982 0 0 0 0
1983 0 0 0 0
1984 0 0 0 0
1985 0 0 0 0
1986 0 0 0 0
1987 0 0 0 0
1988 0 0 0 0
1989 922.169 13.0824 896.453 12.2063
1990 900.896 12.3793 937.09 13.6459
1991 902.29 12.3542 880.241 12.0972
1992 880.339 11.7507 904.085 12.3799
1993 891.43 12.1774 875.546 11.77
1994 878.271 12.1743 893.531 12.7937
1995 876.589 12.5547 880.25 12.4647
1996 871.926 12.3873 870.031 12.5022
1997 871.335 12.396 869.956 12.5199
1998 870.878 12.1858 862.006 12.4177
1999 846.923 11.9795 871.676 12.6835
2000 853.54 12.4096 873.441 13.096
2001 861.407 12.9215 889.476 13.6463
2002 835.528 12.2806 879.642 13.603
2003 855.917 12.662 849.483 12.9164
2004 841.991 12.1732 845.724 12.4291
2005 818.261 11.997 857.861 13.1408
2006 842.499 12.6474 811.255 12.0659
2007 863.049 13.3701 856.728 13.3557
2008 872.441 13.558 861.466 13.5707
2009 853.549 12.748 832.379 12.6985
2010 837.012 12.6033 850.087 13.2952
2011 828.544 12.5449 820.334 12.8103
2012 829.638 12.9915 844.47 13.5623
2013 846.657 13.3255 832.64 13.3111
2014 814.942 12.5472 796.671 12.6768
2015 815.091 12.6265 821.61 13.3896
2016 793.217 12.4386 791.453 12.7807
2017 814.944 13.1807 799.574 13.1808
2018 815.851 13.3179 811.383 13.6314
2019 822.826 13.882 803.402 13.58
2020 784.229 12.8657 765.183 12.891
2021 785.376 12.823 760.368 12.7523
2022 765.883 12.8019 748.878 12.5827
2023 788.202 13.302 770.739 13.1874
2024 771.565 13.1036 772.974 13.5675
2025 757.344 13.1549 730.582 12.9704
2026 769.385 13.5724 734.988 13.1858
2027 756.124 13.1103 734.118 12.9693
2028 757.46 13.4464 739.472 13.1836
2029 749.025 13.325 718.018 12.6103
2030 760.992 14.0508 732.492 13.7948
2031 741.197 13.8251 709.682 13.4959
2032 738.055 13.506 726.731 13.8204
2033 724.483 12.9406 693.448 12.4823
2034 733.594 13.3094 710.945 13.0799
2035 740.65 13.8843 727.238 14.0394
2036 729.431 14.2941 692.927 13.659
2037 694.396 13.024 676.609 12.9777
2038 720.903 13.3919 683.687 12.7615
2039 706.676 12.9713 673.408 12.4629
2040 718.979 13.7158 695.314 13.2916
2041 725.111 14.3882 692.754 13.6151
2042 682.708 13.5034 652.919 12.8084
2043 686.036 12.8834 688.042 13.6988
2044 699.795 12.9568 669.349 12.4075
2045 695.008 12.9112 692.715 13.3688
2046 725.728 14.2608 684.421 13.5194
2047 652.02 12.9025 660.123 13.0895
2048 690.611 13.7129 662.71 13.3493
2049 677.605 12.5713 706.658 13.8483
2050 695.346 12.8648 716.174 13.7295
2051 690.599 13.1436 707.374 14.1385
2052 714.419 14.2027 703.283 14.3604
2053 669.029 13.2954 676.699 13.735
2054 685.764 13.1546 662.678 12.6484
2055 700.61 12.7946 702.927 13.5165
2056 721.074 13.7084 716.138 13.9668
2057 689.822 13.04 691.004 13.4025
2058 667.049 12.5672 669.264 12.9565
2059 689.17 13.4482 688.21 13.457
2060 720.081 13.3401 720.826 13.5142
2061 710.509 12.7621 720.024 13.0088
2062 715.112 13.2305 709.14 12.9695
2063 721.604 13.4803 705.872 13.3112
2064 724.607 13.7551 723.516 13.7439
2065 736.734 13.3999 743.386 13.7055
2066 752.565 13.1175 728.972 12.4864
2067 747.562 12.7319 763.196 13.4842
2068 795.588 14.6341 771.797 13.961
2069 758.734 13.508 763.107 13.9231
2070 767.418 14.1337 735.577 13.0556
2071 784.693 13.2882 776.546 13.0536
2072 797.014 13.3704 784.932 13.0143
2073 788.248 13.0268 784.128 13.063
2074 774.054 13.189 794.199 13.5419
2075 839.602 15.085 801.219 13.8436
2076 806.452 13.6478 771.618 12.695
2077 814.965 12.8416 836.674 13.5097
2078 826.901 13.3208 835.688 13.4148
2079 842.236 14.0444 829.11 13.5126
2080 834.526 13.8471 847.989 14.4198
2081 821.135 13.2791 839.554 13.8719
2082 834.122 13.0846 880.494 14.3907
2083 855.451 12.9027 868.591 13.5534
2084 853.917 12.8017 891.938 14.234
2085 883.131 14.4289 854.038 13.8099
2086 860.372 13.4644 867.151 14.1411
2087 897.198 14.3675 875.177 14.1536
2088 863.645 12.669 871.72 13.1591
2089 896.544 13.1854 917.821 14.5723
2090 893.903 13.35 898.712 13.9386
2091 881.317 13.469 915.462 14.8876
2092 906.392 13.8897 933.871 15.0832
2093 916.704 14.0728 923.827 14.4462
2094 906.083 12.7863 943.995 14.3527
2095 939.763 13.7482 941.295 14.317
2096 957.188 14.6216 935.752 14.4043
2097 940.451 14.2306 942.141 14.8766
2098 964.646 14.6907 928.84 14.1649
2099 924.301 13.1204 954.634 14.3038
2100 978.591 14.1029 946.409 14.0274
2101 994.885 14.6264 999.465 15.1955
2102 953.336 13.9957 947.669 14.1547
2103 981.864 14.6853 959.183 14.601
2104 966.53 13.9578 968.395 14.5037
2105 966.603 13.4363 984.029 14.2135
2106 979.052 14.0673 977.35 14.3097
2107 0 0 0 0
2108 0 0 0 0
2109 0 0 0 0
2110 0 0 0 0
2111 0 0 0 0
2112 0 0 0 0
2113 0 0 0 0
2114 0 0 0 0
2115 0 0 0 0
2116 0 0 0 0
2117 882.998 24.183 745.172 18.1
2118 837.125 19.0416 576.098 12.0931
2119 804.016 15.5326 645.004 12.1439
2120 984.611 15.3498 970.709 15.3654
2121 945.863 14.1965 956.743 14.8525
2122 960.937 14.5213 945.784 14.5221
2123 961.707 15.0033 958.736 15.2662
2124 926.781 14.0297 895.774 13.5193
2125 633.871 10.0115 698.19 10.6445
2126 419.056 7.55811 479.169 7.68248
2127 912.375 22.5738 782.412 16.2942
2128 940.602 25.0947 976.547 24.779
2129 1119.77 27.3282 1014.07 21.8227
2130 960.54 15.6172 927.985 14.8588
2131 917.311 14.2927 901.307 14.3116
2132 919.42 14.6684 919.487 15.0838
2133 925.745 15.0252 911.461 14.6967
2134 901.635 14.4576 893.979 14.6603
2135 913.91 14.6266 896.36 14.4762
2136 935.766 15.4419 947.752 15.9673
2137 914.531 14.7761 906.485 14.8132
2138 901.586 14.6147 905.228 15.1112
2139 914.988 15.1777 899.826 15.0987
2140 0 0 0 0
2141 0 0 0 0
2142 0 0 0 0
2143 0 0 0 0
2144 0 0 0 0
2145 0 0 0 0
2146 0 0 0 0
2147 0 0 0 0
2148 0 0 0 0
2149 0 0 0 0
2150 836.22 15.7524 820.154 15.68
2151 778.924 15.732 800.168 17.1528
2152 733.589 13.7634 847.383 18.7769
2153 800.816 15.8065 845.028 19.4164
2154 790.686 15.3083 815.653 17.0007
2155 805.939 14.8537 782.795 14.6835
2156 825.138 16.2484 778.483 15.4088
2157 784.774 14.636 779.055 15.1416
2158 790.999 14.5241 773.343 14.3818
2159 808.114 15.4446 774.885 14.9247
2160 783.492 14.8839 776.597 15.3842
2161 775.472 15.0379 764.981 15.3071
2162 785.47 15.206 750.932 14.9247
2163 813.505 16.0127 768.581 14.9337
2164 783.552 14.4947 752.616 14.1397
2165 0 0 0 0
2166 0 0 0 0
2167 0 0 0 0
2168 0 0 0 0
2169 808.457 17.4938 883.875 20.8572
2170 789.924 14.5433 773.19 14.5893
2171 783.842 14.8564 761.342 14.5633
2172 793.761 15.1377 769.516 14.653
2173 773.468 14.3684 738.371 13.5469
2174 803.812 14.7238 773.4 14.3598
2175 797.436 14.1398 780.297 14.024
2176 798.338 14.326 776.576 14.2941
2177 788.217 14.3665 773.939 14.191
2178 760.976 13.0232 802.824 14.9157
2179 825.576 15.163 795.771 14.7664
2180 826.793 14.4066 810.798 14.3592
2181 814.828 14.0275 816.655 14.4344
2182 800.334 13.7593 815.893 14.3951
2183 784.696 13.2023 802.675 13.8805
2184 799.018 13.6364 795.09 13.6384
2185 830.134 14.1781 832.139 14.5078
2186 844.197 14.1762 824.396 13.9201
2187 842.619 14.1631 822.624 13.8004
2188 838.274 14.0771 813.806 13.362
2189 831.378 13.6094 808.496 13.3233
2190 856.573 14.5349 838.802 14.0159
2191 892.033 14.8765 860.84 14.1411
2192 889.505 14.816 845.902 13.6602
2193 844.105 13.4671 869.151 13.945
2194 864.69 13.7502 862.488 13.6723
2195 845.275 13.3443 876.597 14.0161
2196 855.536 13.4648 880.281 13.9045
2197 869.886 13.1814 887.881 13.6463
2198 871.834 13.2348 911.689 14.1829
2199 889.071 13.2016 893.328 13.4367
2200 885.154 13.2754 894.581 13.4213
2201 913.417 14.2532 877.329 13.1535
2202 890.909 12.9641 942.005 14.4097
2203 913.335 13.2053 920.571 13.5261
2204 930.853 13.3816 935.687 13.2964
2205 931.985 13.0503 961.044 14.0306
2206 963.043 13.9067 949.159 13.5631
2207 938.394 13.524 945.913 13.6004
2208 987.43 13.8654 981.14 13.9517
2209 952.898 12.9241 1002.75 14.142
2210 1001.14 13.6528 986.551 13.191
2211 1000.36 13.4884 1010.54 14.0479
2212 999.719 13.7027 1000.76 13.9026
2213 970.091 13.2849 993.338 13.9165
2214 1006.59 13.2194 1027.31 13.9496
2215 1014.6 13.3483 1052.22 14.6193
2216 1037.42 13.6091 1015.42 13.5551
2217 1010.69 13.1319 1019.34 13.6141
2218 1040.62 14.2654 1020.23 14.0417
2219 1056.34 14.0039 1038.78 14.178
2220 1053.13 13.7135 1039.02 13.5922
2221 1044.78 13.336 1023.36 12.9905
2222 1055.8 13.2964 1065.59 14.0434
2223 1054.36 13.9575 1043.69 13.6186
2224 1027.87 13.5053 1050.16 14.3865
2225 1086.31 14.1771 1054.22 13.6414
2226 1044.53 13.2534 1033.64 13.3831
2227 1065.99 13.3385 1065.48 13.8565
2228 1110.55 15.2266 1093.08 15.114
2229 1072.5 14.5618 1065.27 14.4811
2230 1088.89 14.7894 1094.98 15.0895
2231 1089.21 14.1716 1088.08 14.3901
2232 1054.9 13.5171 1061.42 14.2557
2233 1072.38 13.887 1080.46 14.6571
2234 1060.18 14.2473 1013.51 13.5419
2235 0 0 0 0
2236 0 0 0 0
2237 0 0 0 0
2238 0 0 0 0
2239 0 0 0 0
2240 0 0 0 0
2241 0 0 0 0
2242 0 0 0 0
2243 0 0 0 0
2244 0 0 0 0
2245 1005.43 15.748 960.844 16.3772
2246 975.696 14.3483 998.514 15.9758
2247 1019.83 15.3234 997.323 15.7723
2248 1025.96 14.6862 1033.15 15.7293
2249 978.918 14.462 979.636 15.1659
2250 974.926 14.3396 937.298 14.2095
2251 992.299 15.1571 942.794 14.3274
2252 998.449 15.4677 972.652 15.5341
2253 980.744 14.9666 977.866 15.476
2254 999.272 15.694 955.438 15.5803
2255 943.404 14.6357 888.636 14.0852
2256 977.644 15.6958 914.591 14.978
2257 915.775 14.1654 921.859 15.1833
2258 949.365 15.3854 906.196 14.9354
2259 945.985 15.2117 919.052 15.3777
2260 947.267 16.0049 786.808 12.4488
2261 864.574 13.6589 464.772 5.6781
2262 868.09 14.1591 334.732 3.61412
2263 888.588 14.7424 445.823 5.35682
2264 923.811 15.7994 803.061 13.2558
2265 914.546 15.7085 859.136 15.4658
2266 857.404 14.9274 820.555 14.769
2267 850.461 14.2135 819.757 14.5484
2268 798.751 13.1787 815.371 14.5073
2269 876.634 15.1879 860.771 15.7681
2270 899.166 16.6079 872.207 16.6629
2271 854.307 15.6122 818.261 15.6368
2272 828.924 14.8501 830.266 16.1646
2273 849.327 15.2925 814.774 14.9862
2274 876.356 16.0634 819.605 15.5259
2275 847.055 15.8129 832.292 16.3754
2276 842.972 16.4001 794.014 16.1454
2277 811.548 15.8206 803.105 16.8897
2278 823.069 15.6872 775.322 15.3206
2279 845.219 16.1761 795.221 15.6824
2280 879.597 18.0749 872.651 19.3739
2281 928.972 21.5736 916.705 22.8037
2282 827.053 17.9311 838.055 20.3238
2283 837.691 18.0896 794.994 17.9274
2284 826.917 16.6267 765.489 16.0093
2285 817.641 16.2738 774.712 15.9303
2286 790.51 16.2089 771.437 16.7107
2287 783.683 16.6212 746.174 16.8085
2288 784.264 16.9563 720.873 15.8862
2289 780.416 15.9807 750.142 16.094
2290 816.468 16.378 757.542 16.0627
2291 776.364 15.7098 773.672 17.2298
2292 806.792 17.7046 766.693 17.8694
2293 757.72 16.5035 710.782 16.2957
2294 787.664 16.9477 733.591 16.4996
2295 763.987 15.1673 741.011 15.8485
2296 813.799 17.2275 751.894 16.1415
2297 792.373 17.1212 756.021 16.9172
2298 771.021 16.8653 734.278 16.7881
2299 749.6 16.1709 747.071 17.5756
2300 797.242 16.6061 768.961 16.9629
2301 821.248 17.2331 799.107 17.3116
2302 779.05 15.5967 782.571 17.312
2303 650.161 16.5304 673.407 19.367
2304 659.854 15.5385 687.135 18.5722
2305 677.314 14.8863 693.118 17.6501
2306 691.31 15.2598 690.928 16.8832
2307 690.637 15.4222 717.312 19.2769
2308 718.726 18.2701 748 21.8868
2309 710.233 18.0728 714.037 20.1281
2310 757.019 19.0336 695.977 17.2144
2311 757.627 17.1932 757.918 17.8147
2312 824.435 19.272 791.749 18.9712
2313 776.283 17.4399 725.916 17.1197
2314 709.201 15.8945 717.895 17.1112
2315 802.638 18.9567 706.533 16.1969
2316 789.555 17.446 778.3 18.1075
2317 809.032 16.3419 878.93 19.8141
2318 840.402 17.7647 1016.36 27.9285
2319 807.823 16.849 904.928 22.3037
2320 825.168 17.7548 944.519 24.4425
2321 885.483 17.4395 859.368 17.3028
2322 0 0 0 0
2323 0 0 0 0
2324 0 0 0 0
2325 0 0 0 0
2326 0 0 0 0
2327 0 0 0 0
2328 0 0 0 0
2329 0 0 0 0
2330 0 0 0 0
2331 0 0 0 0
2332 0 0 0 0
2333 0 0 0 0
2334 0 0 0 0
2335 0 0 0 0
2336 0 0 0 0
2337 0 0 0 0
2338 0 0 0 0
2339 0 0 0 0
2340 0 0 0 0
2341 0 0 0 0
2342 0 0 0 0
2343 0 0 0 0
2344 0 0 0 0
2345 0 0 0 0
2346 0 0 0 0
2347 0 0 0 0
2348 0 0 0 0
2349 0 0 0 0
2350 0 0 0 0
2351 0 0 0 0
2352 0 0 0 0
2353 0 0 0 0
2354 0 0 0 0
2355 0 0 0 0
2356 0 0 0 0
2357 0 0 0 0
2358 0 0 0 0
2359 0 0 0 0
2360 0 0 0 0
2361 0 0 0 0
2362 1157.7 19.094 1132.13 18.7272
2363 0 0 0 0
2364 0 0 0 0
2365 0 0 0 0
2366 0 0 0 0
2367 0 0 0 0
2368 0 0 0 0
2369 0 0 0 0
2370 0 0 0 0
2371 0 0 0 0
2372 0 0 0 0
2373 0 0 0 0
2374 0 0 0 0
2375 0 0 0 0
2376 0 0 0 0
2377 0 0 0 0
2378 0 0 0 0
2379 0 0 0 0
2380 0 0 0 0
2381 0 0 0 0
2382 1024.28 16.419 986.66 16.1407
2383 983.141 15.8942 1014.58 17.9959
2384 1029.57 17.5506 981.174 16.9951
2385 1010.34 16.806 963.282 16.6598
2386 954.421 15.9332 976.895 17.7577
2387 963.433 15.6543 932.035 15.5177
2388 954.769 15.263 939.388 15.98
2389 956.039 15.9796 945.848 16.7071
2390 947.095 16.0249 926.405 16.5005
2391 927.474 15.8312 932.602 17.3912
2392 940.521 16.0554 897.992 16.0117
2393 947.75 15.4357 923.843 16.2526
2394 926.579 15.517 911.999 16.1687
2395 979.862 17.5292 872.154 15.7096
2396 940.773 16.9233 867.236 15.6665
2397 900.227 15.9806 908.57 17.628
2398 887.809 14.9418 889.019 16.0235
2399 923.779 15.6754 900.204 16.2953
2400 888.698 15.8027 891.913 17.5651
2401 0 0 0 0
2402 0 0 0 0
2403 344.76 13.4383 442.087 16.2774
2404 737.221 17.7901 736.277 19.225
2405 578.977 17.8974 547.955 18.1692
2406 0 0 0 0
2407 0 0 0 0
2408 0 0 0 0
2409 0 0 0 0
2410 0 0 0 0
2411 0 0 0 0
2412 0 0 0 0
2413 0 0 0 0
2414 0 0 0 0
2415 0 0 0 0
2416 0 0 0 0
2417 0 0 0 0
2418 0 0 0 0
2419 0 0 0 0
2420 0 0 0 0
2421 0 0 0 0
2422 0 0 0 0
2423 0 0 0 0
2424 0 0 0 0
2425 0 0 0 0
2426 0 0 0 0
2427 0 0 0 0
2428 0 0 0 0
2429 0 0 0 0
2430 0 0 0 0
2431 0 0 0 0
2432 0 0 0 0
2433 0 0 0 0
2434 0 0 0 0
2435 0 0 0 0
2436 0 0 0 0
2437 0 0 0 0
2438 0 0 0 0
2439 0 0 0 0
2440 0 0 0 0
2441 0 0 0 0
2442 0 0 0 0
2443 0 0 0 0
2444 0 0 0 0
2445 0 0 0 0
2446 0 0 0 0
2447 0 0 0 0
2448 0 0 0 0
2449 0 0 0 0
2450 0 0 0 0
2451 0 0 0 0
2452 0 0 0 0
2453 0 0 0 0
2454 0 0 0 0
2455 0 0 0 0
2456 0 0 0 0
2457 0 0 0 0
2458 0 0 0 0
2459 0 0 0 0
2460 0 0 0 0
2461 0 0 0 0
2462 0 0 0 0
2463 0 0 0 0
2464 0 0 0 0
2465 0 0 0 0
2466 0 0 0 0
2467 0 0 0 0
2468 0 0 0 0
2469 0 0 0 0
2470 0 0 0 0
2471 0 0 0 0
2472 0 0 0 0
2473 0 0 0 0
2474 0 0 0 0
2475 0 0 0 0
2476 0 0 0 0
2477 584.843 17.9987 566.995 15.8621
2478 568.486 16.972 570.517 17.0892
2479 0 0 0 0
2480 0 0 0 0
2481 996.497 19.7153 1001.55 20.047
2482 1039.95 19.107 1016.47 18.6329
2483 1116.54 23.055 1038.9 20.3604
2484 1085.4 21.4909 1041.65 20.7637
2485 1042.89 20.3101 1009.11 19.6212
2486 974.288 19.229 890.965 16.4882
2487 1060.09 22.8195 892.599 16.3709
2488 1193.78 27.4504 1044 21.185
2489 1095.46 23.2411 1065.91 23.265
2490 956.587 17.7712 998.337 20.6762
2491 0 0 0 0
2492 0 0 0 0
2493 0 0 0 0
2494 0 0 0 0
2495 0 0 0 0
2496 0 0 0 0
2497 0 0 0 0
2498 0 0 0 0
2499 0 0 0 0
2500 0 0 0 0
2501 970.803 20.17 991.73 22.4038
2502 907.971 17.7194 936.791 19.869
2503 897.643 17.9082 901.465 18.6788
2504 911.368 18.032 871.627 17.4732
2505 919.235 18.4723 886.157 18.4645
2506 900.804 18.8549 831.849 17.8282
2507 834.065 15.86 851.803 17.7368
2508 879.19 17.4801 839.29 17.4774
2509 878.401 18.1326 870.315 19.0659
2510 893.22 18.1033 875.244 18.5162
2511 862.23 18.0582 868.264 19.7068
2512 854.346 18.1336 841.966 19.1797
2513 904.335 19.5119 854.453 19.2941
2514 873.261 18.388 840.432 18.5735
2515 856.344 17.8384 892.51 21.0249
2516 853.012 17.7868 807.81 17.4014
2517 847.708 19.2192 826.899 20.0837
2518 814.372 17.138 802.233 18.2573
2519 841.492 18.305 802.269 18.1956
2520 841.901 18.0198 774.161 17.2055
2521 835.01 17.8083 782.814 17.3858
2522 804.118 17.4712 809.725 19.3061
2523 790.265 17.9831 786.45 19.4196
2524 840.314 18.9141 755.617 17.086
2525 840.248 18.8455 801.997 18.8248
2526 831.796 18.6768 778.717 18.4357
2527 825.627 18.614 779.193 18.4394
2528 780.073 18.3621 770.242 19.4647
2529 791.321 18.7849 757.199 18.8372
2530 796.904 18.0001 740.701 17.1481
2531 796.774 18.5502 766.267 18.3149
2532 795.872 18.9916 751.468 18.5349
2533 771.473 18.2974 778.358 20.3072
2534 771.905 19.7313 771.354 21.6186
2535 797.623 19.6451 769.157 20.0082
2536 781.53 18.8304 727.011 17.7469
2537 779.017 19.2116 745.694 19.3327
2538 775.692 19.2126 735.554 18.9331
2539 716.411 18.007 722.499 19.7598
2540 780.001 21.126 721.923 19.6181
2541 749.504 18.1781 697.946 17.4289
2542 740.172 18.1295 709.842 17.8479
2543 755.816 19.1648 702.549 18.3129
2544 719.251 17.9715 707.974 18.7692
2545 730.175 19.4853 686.904 18.7098
2546 688.295 16.8394 698.533 18.2279
2547 733.519 17.9616 694.657 17.0607
2548 784.647 20.6051 733.451 19.5075
2549 705.528 17.4301 688.712 17.8277
2550 716.421 18.2165 682.534 18.0462
2551 723.523 18.7242 720.914 19.6837
2552 735.385 17.9888 725.314 18.2886
2553 739.393 17.9207 724.951 18.2403
2554 720.887 17.697 711.484 17.9414
2555 756.032 19.463 676.527 16.7507
2556 733.802 19.0155 656.246 16.2337
2557 757.981 19.0231 731.49 18.7231
2558 762.831 18.25 704.717 16.6893
2559 745.398 17.6408 702.455 16.5974
2560 715.649 17.5633 718.768 17.9048
2561 732.778 17.8418 739.609 18.908
2562 708.13 16.7401 739.244 18.6753
2563 797.702 19.5395 774.625 18.9764
2564 727.909 16.6913 747.709 18.247
2565 758.019 18.2688 720.541 17.0684
2566 764.44 18.9191 730.23 18.0868
2567 741.312 18.4657 726.833 18.3199
2568 762.036 18.4908 776.777 19.6782
2569 757.002 17.6243 742.034 17.2704
2570 783.034 19.3191 753.523 18.5025
2571 748.956 18.4785 709.712 16.9632
2572 731.829 17.5259 721.276 17.4065
2573 751.851 18.4833 712.93 17.0034
2574 791.042 19.4467 760.533 17.5298
2575 748.443 16.9264 741.918 16.8108
2576 746.603 17.2622 745.684 17.065
2577 755.679 17.671 747.317 17.1114
2578 733.046 16.211 772.87 18.0121
2579 784.445 17.9919 762.335 16.8982
2580 795.459 17.1803 761.901 16.325
2581 741.153 15.3779 760.317 16.117
2582 733.593 15.4636 767.643 16.5916
2583 774.609 16.6903 782.704 16.9973
2584 811.058 17.9804 795.247 17.1309
2585 845.833 18.4696 840.348 18.243
2586 774.88 15.7195 799.111 16.6034
2587 779.739 15.9115 784.797 15.9291
2588 801.808 16.6673 806.892 16.5971
2589 814.881 17.0089 812.096 16.9761
2590 867.981 18.9012 814.874 16.7048
2591 856.813 17.7425 853.044 17.2207
2592 821.149 16.7127 818.109 16.6216
2593 788.204 15.3373 835.476 17.0578
2594 810.502 16.0532 825.995 16.4826
2595 828.692 16.4286 846.902 17.335
2596 835.766 16.5059 917.251 19.4006
2597 826.754 15.849 860.161 17.3177
2598 816.476 15.7593 820.805 16.3212
2599 835.787 16.3104 846.536 16.6977
2600 877.543 17.6908 881.327 18.0918
2601 833.162 16.1506 882.517 18.1976
2602 888.941 17.7282 911.116 18.8969
2603 842.92 16.289 845.635 16.909
2604 839.253 16.1631 825.671 15.9528
2605 840.852 16.1161 869.644 17.3696
2606 861.532 16.588 876.508 17.7316
2607 857.915 16.4932 896.403 18.5155
2608 879.129 17.3808 875.658 17.7434
2609 831.069 15.9347 850.302 17.378
2610 839.892 16.0696 809.398 15.2716
2611 878.936 17.1879 882.382 17.8344
2612 881.823 17.7023 836.049 16.127
2613 875.027 17.3949 921.317 19.758
2614 874.499 17.7641 863.523 17.5551
2615 863.311 17.0798 850.004 17.0152
2616 889.446 17.2774 859.845 16.8742
2617 909.278 18.3954 899.338 18.28
2618 860.469 17.3225 894.742 18.8595
2619 0 0 0 0
2620 0 0 0 0
2621 0 0 0 0
2622 0 0 0 0
2623 0 0 0 0
2624 0 0 0 0
2625 0 0 0 0
2626 0 0 0 0
2627 0 0 0 0
2628 0 0 0 0
2629 831.522 17.2294 869.836 19.1814
2630 827.639 16.7303 834.033 17.8593
2631 843.439 17.5986 844.247 18.1915
2632 856.526 17.6322 806.421 16.5266
2633 864.111 18.0043 822.418 16.9623
2634 834.289 17.6296 779.227 16.0747
2635 839.874 17.5769 825.566 18.2315
2636 882.371 19.8924 818.714 18.0971
2637 795.299 16.6195 800.028 17.2918
2638 817.293 16.8084 818.996 17.7062
2639 807.228 16.8568 806.86 17.6697
2640 845.307 18.8307 812.925 18.5455
2641 812.22 17.7192 802.837 18.0817
2642 825.483 18.3675 809.258 18.6054
2643 806.856 17.4178 779.148 17.0872
2644 801.067 17.1005 813.053 18.2655
2645 806.102 17.5912 779.974 17.3659
2646 827.766 18.7149 777.022 17.5583
2647 778.424 16.9167 817.92 19.3358
2648 798.891 17.8528 779.095 17.8051
2649 800.507 17.2939 761.733 16.643
2650 782.648 16.9418 809.402 18.7879
2651 774.9 16.9741 756.879 17.1248
2652 789.727 17.395 780.694 18.1137
2653 753.067 16.4466 783.491 18.5196
2654 735.22 15.6702 734.275 16.5561
2655 783.785 17.4592 765.635 17.5817
2656 743.801 16.1335 769.294 17.6264
2657 747.628 16.406 733.462 16.795
2658 804.322 18.9267 742.296 17.2103
2659 783.798 18.2847 751.081 17.9049
2660 761.736 17.5117 740.84 17.2274
2661 774.994 17.4892 727.567 16.3768
2662 740.939 16.6051 723.51 16.7093
2663 718.603 15.8005 717.411 16.4913
2664 775.92 18.483 736.797 17.7902
2665 732.434 16.9411 714.982 17.03
2666 746.583 17.2173 729.631 17.3717
2667 779.518 18.4596 721.624 17.0429
2668 758.1 18.1335 707.085 16.5582
2669 761.848 18.2699 721.748 17.3435
2670 722.302 17.0569 680.567 16.0443
2671 703.849 59.3779 471.509 28.5751
2672 0 0 0 0
2673 862.004 67.186 620.996 35.5091
2674 0 0 0 0
2675 0 0 0 0
2676 0 0 0 0
2677 0 0 0 0
2678 0 0 0 0
2679 637.515 38.3129 847.559 57.6258
2680 801.568 53.0864 908.389 60.0094
2681 832.865 49.7234 866.683 50.1192
2682 725.791 36.7363 892.876 56.2018
2683 784.156 41.4596 797.154 42.5788
2684 779.384 42.2035 841.581 47.9417
2685 700.597 33.5301 980.083 62.9569
2686 631.642 27.1978 1121.84 77.2791
2687 649.656 29.2032 950.336 58.47
2688 566.721 21.7944 1006.16 62.2652
2689 737.063 16.7601 764.408 18.3315
2690 740.727 17.0826 776.21 19.0394
2691 749.427 17.5203 762.801 18.5187
2692 789.032 19.5936 776.267 19.2044
2693 779.632 19.7655 765.002 18.9954
2694 751.441 17.1699 768.505 17.742
2695 797.165 18.8452 772.66 18.1265
2696 785.736 18.8983 778.948 18.5024
2697 748.921 17.3883 771.128 18.3523
2698 736.029 16.8633 753.073 17.9136
2699 783.204 19.2048 786.196 18.8279
2700 821.667 19.5757 804.379 18.804
2701 805.067 19.397 782.544 18.3119
2702 782.998 18.7096 798.33 19.0199
2703 798.305 18.9791 790.849 18.7431
2704 801.461 19.7825 803.295 19.9265
2705 817.153 19.548 797.912 18.2463
2706 823.027 19.6078 827.94 19.8137
2707 820.04 19.9733 823.012 19.7222
2708 830.029 20.2746 814.473 19.0868
2709 814.826 19.378 818.047 19.6001
2710 819.891 20.1033 820.533 19.8507
2711 855.875 20.2294 845.804 19.6451
2712 883.38 22.2569 866.884 21.6545
2713 865.306 21.3436 834.358 20.0867
2714 823.609 19.6136 831.002 19.5619
2715 832.8 19.9512 835.922 20.2601
2716 848.906 20.3138 836.184 19.2713
2717 878.144 21.3127 853.196 19.5975
2718 838.407 20.4978 857.895 20.9751
2719 861.512 21.1362 815.357 18.6158
2720 839.165 19.6709 828.938 19.066
2721 877.051 22.088 836.997 20.1828
2722 905.086 21.9929 886.987 20.9585
2723 881.761 21.7524 864.035 21.1196
2724 853.929 21.3927 860.199 21.0635
2725 857.393 21.0224 866.918 21.1222
2726 839.615 20.1313 844.238 20.292
2727 827.075 19.8482 861.946 21.0383
2728 902.428 22.7535 882.144 21.4422
2729 876.437 23.2519 882.527 23.245
2730 848.634 21.576 855.09 21.3824
2731 867.238 21.9223 844.989 20.8036
2732 889.19 23.5045 841.322 20.6193
2733 875.252 22.3264 859.156 21.02
2734 900.267 24.2298 905.64 24.067
2735 836.158 22.1692 834.108 22.0491
2736 812.641 20.4726 842.132 21.0183
2737 856.765 21.9869 847.268 21.2341
2738 821.882 21.0559 791.393 19.2968
2739 829.045 20.9443 846.057 21.5156
2740 843.535 23.2321 881.78 24.9847
2741 834.224 22.6351 836.11 22.1549
2742 776.862 19.1235 816.606 20.7078
2743 796.028 19.8003 807.281 20.3975
2744 845.924 22.8921 772.008 18.9378
2745 849.292 22.5516 838 22.2433
2746 798.906 21.528 813.348 22.024
2747 0 0 0 0
2748 0 0 0 0
2749 0 0 0 0
2750 0 0 0 0
2751 0 0 0 0
2752 0 0 0 0
2753 0 0 0 0
2754 0 0 0 0
2755 0 0 0 0
2756 0 0 0 0
2757 797.469 22.0684 767.005 20.8695
2758 770.301 20.2743 757.4 19.6057
2759 768.125 20.0286 765.433 19.6933
2760 792.655 21.5547 799.767 22.1852
2761 733.293 18.5868 743.709 19.3311
2762 740.432 19.6868 749.946 20.0255
2763 721.856 19.3615 725.91 19.2982
2764 717.515 18.5992 750.649 19.6304
2765 715.714 18.5147 755.869 19.9961
2766 722.281 18.9815 736.321 19.7599
2767 708.4 18.4462 730.009 19.6553
2768 685.174 17.9878 695.126 18.5293
2769 703.828 18.8877 704.913 18.658
2770 741.214 20.159 701.394 18.2318
2771 708.376 18.4947 707.482 18.6901
2772 699.209 18.4781 722.871 20.0569
2773 715.682 19.8868 703.08 19.3843
2774 718.907 20.1814 715.527 20.2489
2775 738.529 20.8846 674.799 17.557
2776 715.081 19.2107 689.788 18.2876
2777 704.581 18.9801 708.138 19.5091
2778 695.57 19.0079 656.674 17.6839
2779 760.221 22.9225 686.343 19.6304
2780 694.244 19.3836 675.825 18.471
2781 676.484 18.2998 667.321 17.5723
2782 700.499 19.8354 659.308 17.5429
2783 666.606 18.4101 669.526 18.6142
2784 670.814 18.773 659.624 18.7111
2785 668.37 18.9383 656.319 18.3092
2786 648.071 17.6145 637.352 16.8171
2787 642.815 17.3983 626.058 16.5307
2788 640.405 17.6048 667.114 19.4848
2789 656.381 18.9317 667.092 19.5776
2790 641.726 18.6782 640.172 18.2327
2791 623.582 17.3163 648.56 18.5171
2792 623.296 17.1539 665.15 19.3256
2793 647.853 19.1172 605.501 16.912
2794 615.922 17.4029 629.926 18.7153
2795 604.851 16.9655 618.696 17.3952
2796 663.802 20.54 589.828 16.2427
2797 643.59 18.8091 627.046 17.5435
2798 633.761 18.3474 604.764 16.6461
2799 620.194 18.1113 599.459 17.1111
2800 595.582 16.8044 641.117 18.8191
2801 626.689 18.6632 612.438 17.7235
2802 615.073 17.8814 618.63 17.7746
2803 595.091 16.8183 607.164 17.0993
2804 582.25 16.3927 606.035 17.4828
2805 601.568 17.459 654.076 20.264
2806 621.868 18.4688 602.431 16.9255
2807 605.985 17.5716 608.909 17.3185
2808 598.645 16.6979 639.458 18.2656
2809 615.43 17.8471 605.203 16.926
2810 618.551 18.1737 613.171 17.5432
2811 603.7 17.3632 644.3 18.5366
2812 639.252 18.6098 606.89 16.3511
2813 638.959 18.5255 631.293 17.8183
2814 642.606 18.3954 613.969 16.2983
2815 585.079 15.6609 612.086 16.5444
2816 618.081 17.2361 607.521 16.2162
2817 635.332 17.4784 687.971 19.3264
2818 638.015 17.6322 654.008 17.9042
2819 626.694 16.7111 651.024 17.5916
2820 618.451 16.5879 649.625 17.3924
2821 609.441 16.7089 615.122 16.2296
2822 648.741 18.3431 630.984 16.3727
2823 651.428 17.4356 688.479 18.5023
2824 683.539 19.4124 701.633 19.7139
2825 683.726 19.0967 656.082 16.5439
2826 629.679 16.7142 648.621 16.5608
2827 643.245 17.3857 663.119 17.3871
2828 668.719 18.0668 679.337 17.2657
2829 650.547 16.549 653.457 16.0281
2830 663.473 17.798 706.092 18.8938
2831 665.709 17.4448 693.202 17.5327
2832 653.795 17.5111 652.558 16.5777
2833 666.871 17.8987 703.716 18.1938
2834 636.59 15.7998 680.886 16.511
2835 654.761 16.8684 666.304 16.7384
2836 657.233 16.8913 672.059 16.4653
2837 651.76 16.9358 697.176 17.8549
2838 659.367 17.4776 707.747 18.396
2839 665.523 17.1031 731.105 18.3061
2840 664.151 16.7992 692.833 16.6843
2841 656.476 16.8303 724.172 18.5997
2842 680.291 17.2283 700.683 17.0185
2843 664.665 17.0206 686.808 16.8713
2844 697.779 18.0505 718.699 17.8515
2845 688.702 17.341 752.502 18.6416
2846 703.911 17.9516 736.873 18.4675
2847 655.344 15.83 695.239 16.7627
2848 704.264 17.457 710.392 16.7912
2849 658.192 16.3783 707.913 17.4793
2850 705.121 17.633 779.647 19.4812
2851 726.619 17.9983 739.589 17.2255
2852 707.404 17.7968 734.181 17.6808
2853 726.782 17.7333 748.954 17.6206
2854 700.606 16.7462 734.006 17.0133
2855 746.956 18.8218 769.86 18.576
2856 724.703 17.3994 768.033 17.8806
2857 745.11 18.1599 759.413 17.6733
2858 739.234 18.3328 754.658 17.8212
2859 753.572 18.4021 795.838 18.9507
2860 691.421 15.9654 781.824 18.4749
2861 771.673 19.1421 820.064 20.123
2862 722.367 16.7779 778.313 17.8933
2863 729.316 17.2767 751.933 17.1656
2864 754.472 18.3915 771.078 17.7206
2865 796.947 19.8739 791.354 18.3608
2866 761.651 18.7026 807.765 19.5207
2867 750.856 17.6107 807.404 18.8827
2868 788.334 19.4294 782.567 17.8622
2869 724.077 17.0404 792.959 18.905
2870 775.382 18.7788 774.768 17.5942
2871 753.994 18.1428 741.78 16.2367
2872 783.919 19.3994 790.527 18.6386
2873 762.371 18.1869 795.56 18.4715
2874 780.256 19.1777 782.113 18.3041
2875 0 0 0 0
2876 0 0 0 0
2877 0 0 0 0
2878 0 0 0 0
2879 0 0 0 0
2880 0 0 0 0
2881 0 0 0 0
2882 0 0 0 0
2883 0 0 0 0
2884 0 0 0 0
2885 767.83 18.6503 799.279 19.5526
2886 777.135 19.5354 775.315 18.4597
2887 786.263 19.5599 784.279 18.619
2888 796.311 20.6899 763.031 18.06
2889 762.861 19.0193 797.613 19.8993
2890 784.362 19.9825 788.442 19.3662
2891 793.82 19.9717 791.092 19.353
2892 767.534 19.0737 812.035 20.2235
2893 787.834 19.9819 795.541 19.3565
2894 743.277 18.7059 758.498 18.7965
2895 744.758 18.5944 794.977 20.2363
2896 759.495 19.128 777.035 19.1566
2897 775.935 19.3658 755.584 18.0651
2898 781.265 20.1272 779.559 19.4027
2899 744.805 18.4743 793.557 20.4421
2900 746.466 19.466 749.577 18.6479
2901 716.956 17.4976 736.8 17.7806
2902 738.139 17.9857 790.656 19.5668
2903 745.914 18.3964 757.528 18.5391
2904 763.586 19.3105 799.154 20.4744
2905 717.225 17.7737 741.495 18.8422
2906 747.885 19.2065 735.138 18.3753
2907 749.844 18.8608 763.546 18.8928
2908 744.683 18.6395 714.937 16.6698
2909 735.631 18.0738 744.185 18.2183
2910 748.548 19.0112 751.988 18.7062
2911 751.669 19.8465 751.068 19.3546
2912 712.921 17.5905 751.23 18.7973
2913 715.878 17.4913 726.381 17.3512
2914 755.653 19.2018 720.275 17.2743
2915 722.108 17.6908 743.26 18.2798
2916 709.605 17.68 736.052 18.7865
2917 737.599 19.8121 714.193 17.8713
2918 694.871 16.8252 759.877 19.3816
2919 736.662 18.8545 683.08 16.1417
2920 724.777 18.6647 714.243 17.3326
2921 699.788 17.4972 699.378 16.9655
2922 724.24 19.1016 706.842 17.8982
2923 689.65 17.635 748.244 19.7579
2924 708.606 18.2383 719.29 18.2811
2925 674.112 16.679 738.694 18.9809
2926 716.622 18.865 721.965 18.4414
2927 707.944 18.9674 717.176 18.697
2928 715.202 19.5926 695.91 18.1955
2929 715.434 19.8809 727.677 19.2562
2930 663.419 17.268 707.45 18.8552
2931 702.347 18.9419 682.454 17.316
2932 711.689 19.6092 680.01 17.4301
2933 666.584 17.9683 717.608 19.9379
2934 695.086 19.2422 720.846 19.7252
2935 670.139 18.1359 735.698 20.694
2936 690.607 18.9953 662.157 16.9754
2937 680.22 18.323 690.17 18.4025
2938 651.555 17.3116 683.427 18.2913
2939 664.734 18.1842 699.263 19.0504
2940 688.548 19.1898 714.952 19.9556
2941 699.692 19.9752 657.139 17.0542
2942 670.521 18.1329 688.131 18.2907
2943 730.641 21.2662 661.246 16.7112
2944 691.319 19.1139 709.628 19.3662
2945 660.797 17.7355 697.186 18.6861
2946 720.729 21.1635 722.315 20.0087
2947 662.914 17.689 682.092 18.2554
2948 705.775 19.2106 672.548 17.1441
2949 674.891 17.9631 698.565 18.2741
2950 700.255 19.2846 727.8 19.9783
2951 741.924 21.0981 696.11 18.0894
2952 681.808 18.577 742.064 20.9608
2953 667.295 17.6499 720.1 19.5936
2954 666.931 17.1024 666.274 16.5746
2955 671.065 17.9006 710.714 18.6715
2956 692.818 18.9844 737.33 20.2058
2957 730.758 21.0735 734.04 20.1596
2958 647.082 17.1658 680.359 18.0158
2959 703.51 19.7113 694.867 18.184
2960 696.946 18.8941 689.118 17.8739
2961 655.758 17.6735 701.186 18.6566
2962 703.749 19.9793 727.272 20.0151
2963 723.794 22.0645 690.019 18.6453
2964 633.368 17.0042 667.577 17.4171
2965 682.34 19.1309 680.014 17.5647
2966 627.423 16.8497 717.515 19.7752
2967 669.769 18.7932 684.624 18.3006
2968 652.701 18.5024 710.257 19.7012
2969 614.287 17.0151 661.503 17.9344
2970 666.379 19.1282 699.778 19.4937
2971 642.692 17.8709 694.635 19.0747
2972 661.345 19.1192 648.508 16.8585
2973 676.606 19.5127 674.031 18.034
2974 634.352 18.2259 677.486 18.9822
2975 631.056 18.2691 682.246 19.3042
2976 652.327 18.7195 680.569 18.6441
2977 645.882 17.9861 691.007 18.874
2978 664.776 19.3979 669.989 18.177
2979 671.398 19.5888 715.986 20.4272
2980 604.82 16.9766 642.075 17.4044
2981 656.026 19.0867 658.9 18.0841
2982 652.823 18.5576 674.529 18.16
2983 660.511 18.9263 672.038 18.1714
2984 630.703 17.199 679.254 18.4486
2985 663.41 19.451 633.376 16.8344
2986 611.045 17.1291 648.682 17.8076
2987 646.016 18.5159 652.347 17.7802
2988 671.464 19.8468 673.656 18.3201
2989 634.096 17.8454 643.604 17.0738
2990 644.035 18.4093 682.72 19.062
2991 609.585 17.4008 661.988 18.9086
2992 607.471 17.3295 703.639 21.1701
2993 644.977 18.8907 686.597 19.7733
2994 622.634 17.5908 659.258 18.214
2995 626.951 18.7226 662.16 19.0801
2996 610.504 17.7272 640.267 18.0101
2997 605.462 18.0157 656.458 19.2106
2998 606.083 17.8615 636.065 18.2602
2999 654.267 20.133 672.639 19.5542
3000 611.275 17.8114 656.91 19.1556
3001 591.429 17.1404 611.226 17.05
3002 594.731 17.491 643.911 18.8341
3003 0 0 0 0
3004 0 0 0 0
3005 0 0 0 0
3006 0 0 0 0
3007 0 0 0 0
3008 0 0 0 0
3009 0 0 0 0
3010 0 0 0 0
3011 0 0 0 0
3012 0 0 0 0
3013 589.918 17.6977 636.619 18.9132
3014 604.627 18.8187 667.5 20.3054
3015 598.658 18.1631 654.243 19.0823
3016 603.194 17.9221 634.003 18.0698
3017 582.123 16.6686 663.684 19.6169
3018 649.219 20.3212 644.674 18.8602
3019 609.458 18.2983 665.224 19.8106
3020 586.158 16.745 627.539 17.3321
3021 626.964 19.2066 613.652 16.7267
3022 612.762 17.9046 660.36 18.7746
3023 623.866 18.6718 629.142 17.3126
3024 609.271 17.9758 658.163 18.912
3025 592.05 17.1212 646.645 18.2873
3026 630.098 18.8008 659.524 18.7812
3027 625.678 18.6866 643.969 18.1647
3028 641.573 19.3941 640.328 17.5653
3029 617.567 18.1821 628.375 17.5105
3030 614.488 18.1642 648.312 18.4456
3031 588.078 16.82 636.575 17.5628
3032 598.275 17.5491 611.777 16.6372
3033 642.327 19.9758 664.969 19.4909
3034 603.229 17.7966 629.919 17.785
3035 588.2 16.9684 645.797 18.4
3036 633.122 19.4598 670.947 20.0432
3037 582.488 16.6212 648.382 18.3041
3038 569.309 16.7142 679.886 21.0735
3039 591.654 17.634 659.669 20.0066
3040 624.214 19.1081 660.408 19.6386
3041 611.473 18.7085 644.813 18.8768
3042 601.943 17.9209 623.579 17.6294
3043 604.255 18.3226 639.833 18.3814
3044 585.704 17.797 627.517 18.8079
3045 580.028 17.2793 601.71 16.8727
3046 570.323 16.4643 599.058 16.295
3047 590.049 17.9475 620.62 17.7404
3048 589.088 17.4742 660.682 19.6814
3049 582.594 17.5019 637.96 19.0642
3050 602.624 19.2466 616.024 18.327
3051 593.72 17.8676 618.667 17.6173
3052 625.158 19.5205 605.952 16.9766
3053 568.81 16.5886 634.275 18.5504
3054 601.078 18.0231 635.234 18.0508
3055 611.918 19.5854 610.126 18.048
3056 621.318 19.635 668.142 21.1319
3057 581.069 16.7863 630.212 18.1229
3058 605.88 18.2279 626.173 18.0917
3059 583.551 17.05 642.287 18.74
3060 606.936 18.6255 615.149 17.3122
3061 591.17 18.445 600.318 17.677
3062 584.194 17.1261 647.606 19.2481
3063 622.096 18.7607 661.624 19.3064
3064 600.193 18.0642 666.289 19.9908
3065 597.512 17.5919 630.249 18.1232
3066 631.667 20.3942 660.408 20.569
3067 581.939 17.565 640.577 19.5769
3068 609.051 18.0494 621.73 17.3828
3069 595.365 17.5206 621.518 17.7068
3070 609.693 18.6498 655.544 19.8727
3071 625.27 21.702 634.606 20.4932
3072 0 0 511.049 33.5029
3073 596.025 18.1482 653.151 19.8198
3074 592.022 16.8909 640.183 18.3882
3075 609.748 18.506 664.905 20.201
3076 597.991 17.8917 675.407 20.5095
3077 632.84 20.0501 657.078 19.9912
3078 615.739 19.8063 626.521 18.7648
3079 599.674 17.8281 673.149 20.0949
3080 656.693 20.9419 616.27 16.6478
3081 590.07 17.3091 651.613 19.5271
3082 582.725 16.7307 640.839 18.51
3083 605.577 18.9503 648.238 19.6183
3084 622.46 19.7762 666.541 20.7057
3085 614.76 18.072 643.203 18.1236
3086 618.892 18.8992 653.077 19.2499
3087 589.455 17.5763 652.082 19.6922
3088 616.798 19.3614 638.625 18.6832
3089 636.429 21.2211 624.888 18.6996
3090 608.263 18.4536 663.036 19.8266
3091 626.533 18.9322 627.082 17.5899
3092 623.727 19.7701 644.252 19.3602
3093 607.021 18.7486 625.695 18.5567
3094 663.426 22.2951 645.613 19.472
3095 651.032 21.9345 676.282 21.6118
3096 646.004 20.3869 668.704 19.9839
3097 622.231 19.0109 698.502 21.5323
3098 661.153 22.3143 640.563 19.1045
3099 636.356 20.3417 677.733 21.1178
3100 625.701 20.3288 678.277 21.8768
3101 645.046 20.8552 680.671 21.1783
3102 661.187 20.9524 672.025 20.2429
3103 656.648 21.0484 637.987 19.0472
3104 641.143 20.496 657.314 19.9996
3105 608.017 18.6178 638.03 18.7784
3106 638.883 20.9535 687.755 22.2278
3107 655.368 20.8974 661.814 19.6959
3108 633.802 19.2493 710.521 21.9383
3109 703.135 24.3287 652.136 19.1457
3110 637.571 19.7815 709.354 22.1557
3111 643.309 20.7274 692.949 21.9381
3112 662.097 21.4465 666.885 20.2557
3113 663.512 20.4817 696.006 21.0191
3114 650.12 20.1517 703.937 21.3862
3115 660.956 20.9407 668.789 19.9827
3116 700.891 23.1472 723.471 22.5073
3117 698.402 23.4657 715.154 23.2319
3118 692.874 22.7578 742.885 23.9715
3119 678.744 21.2329 759.049 24.6202
3120 662.952 20.5893 709.937 21.6533
3121 696.975 22.546 725.119 22.535
3122 628.833 18.8036 714.493 22.3934
3123 737.218 26.141 704.191 22.288
3124 676.297 21.4102 681.869 19.8822
3125 684.814 22.0231 694.405 20.8908
3126 725.719 24.8926 717.789 22.5527
3127 730.333 24.8251 699.942 21.4405
3128 708.452 24.5929 694.878 21.6778
3129 674.492 21.8392 719.786 23.1516
3130 660.438 20.9256 759.744 24.9774
3131 0 0 0 0
3132 0 0 0 0
3133 0 0 0 0
3134 0 0 0 0
3135 0 0 0 0
3136 0 0 0 0
3137 0 0 0 0
3138 0 0 0 0
3139 0 0 0 0
3140 0 0 0 0
3141 695.269 22.2811 722.704 22.4819
3142 698.265 22.0655 769.858 24.5356
3143 743.087 24.6003 737.503 22.2014
3144 734.71 23.3753 776.062 24.173
3145 735.779 24.1329 746.482 23.1375
3146 704.147 22.0341 753.554 22.7889
3147 698.217 20.9894 782.373 24.4827
3148 746.784 23.0603 737.755 21.4508
3149 743.266 22.7963 783.888 23.1647
3150 774.989 24.7225 722.279 20.3967
3151 746.32 23.366 798.39 25.0196
3152 753.283 23.1511 779.468 23.1332
3153 748.142 22.6301 782.68 23.3504
3154 735.997 21.2992 766.189 21.403
3155 767.676 22.629 779.472 22.304
3156 732.606 21.8615 788.168 23.3832
3157 750.854 22.3549 823.056 25.1296
3158 768.257 23.1186 800.552 23.4279
3159 768.882 22.8692 782.249 22.5656
3160 756.675 21.7551 764.374 20.7407
3161 801.262 23.8942 838.693 25.0832
3162 851.172 28.0454 788.922 22.7153
3163 758.831 21.8585 802.665 23.405
3164 745.613 27.0067 791.07 24.1386
3165 781.08 22.8258 758.927 20.4676
3166 800.091 23.6679 814.179 23.3181
3167 762.716 22.1524 787.341 22.4319
3168 799.496 24.345 776.708 21.8361
3169 795.957 23.74 771.247 21.3588
3170 771.559 22.3388 806.762 23.3994
3171 769.451 21.8746 820.608 23.4991
3172 791.242 23.0687 775.596 21.3207
3173 789.983 23.3437 813.387 23.8468
3174 791.309 23.5854 795.001 22.7499
3175 764.022 22.4894 789.74 22.6765
3176 746.072 21.347 742.055 19.8165
3177 723.986 19.6349 778.349 21.1436
3178 802.701 24.3539 791.887 22.4557
3179 754.09 22.1529 769.862 21.3888
3180 775.544 23.338 805.808 23.5151
3181 764.719 23.0216 740.115 20.6438
3182 756.722 21.8769 795.257 22.4783
3183 736.228 20.7638 796.17 22.5256
3184 709.859 19.8665 772.976 22.2743
3185 753.762 22.3431 765.44 21.675
3186 746.256 22.7132 738.161 20.6975
3187 698.089 19.5519 738.95 20.8813
3188 728.012 20.4715 749.771 20.7249
3189 649.575 16.9062 718.957 19.552
3190 745.509 22.4261 743.071 21.3484
3191 675.753 18.9038 753.57 22.406
3192 706.731 21.3461 720.917 20.8838
3193 719.071 21.1771 711.69 19.8383
3194 751.145 22.6401 750.968 21.4636
3195 682.498 19.7821 708.107 19.9341
3196 674.758 19.6564 697.87 19.6654
3197 666.227 19.4837 716.194 21.5568
3198 675.377 20.2859 698.173 20.4684
3199 683.297 20.2067 747.14 22.3308
3200 683.021 20.2397 716.881 20.7043
3201 711.554 22.6674 698.067 20.5373
3202 675.864 20.7378 723.468 22.2341
3203 676.016 21.5945 717.679 22.6455
3204 641.125 19.0368 655.066 18.6418
3205 654.047 19.4548 735.931 22.8397
3206 683.008 21.6083 718.387 22.2655
3207 676.465 21.5466 707.943 22.3278
3208 652.386 20.7446 677.724 20.7432
3209 619.025 19.065 651.999 19.8714
3210 649.182 20.3248 661.294 19.452
3211 662.974 20.9511 685.478 20.9485
3212 632.893 20.0211 657.031 20.1382
3213 637.781 20.371 662.691 20.2638
3214 611.668 19.5775 665.175 21.5621
3215 639.888 21.1886 639.28 20.345
3216 626.004 19.8184 650.993 19.8723
3217 611.154 19.1073 652.158 20.2798
3218 619.25 20.1576 664.381 21.5583
3219 651.507 22.8218 645.083 20.6425
3220 614.439 21.2146 623.905 20.2757
3221 618.539 20.6434 622.3 19.7591
3222 653.616 22.7507 658.166 21.6291
3223 603.893 20.0583 658.418 22.1409
3224 645.295 22.9045 636.432 20.9643
3225 571.718 18.9614 648.401 22.5626
3226 612.12 22.095 617.935 20.4319
3227 573.612 18.5977 632.32 20.4061
3228 602.6 20.6325 647.482 21.7393
3229 590.229 20.4251 629.768 21.4589
3230 606.898 21.7557 618.434 20.8973
3231 576.343 20.5194 590.285 19.514
3232 605.84 22.0754 595.953 19.6006
3233 615.036 22.004 634.36 21.3683
3234 630.789 23.5006 607.967 20.4311
3235 574.938 20.4282 641.146 22.9973
3236 584.319 20.8644 648.45 23.8949
3237 569.811 20.5619 622.151 22.6933
3238 629.961 23.8551 600.109 19.9998
3239 587.83 20.8163 614.97 21.0271
3240 588.135 21.3678 660.612 24.6346
3241 586.092 21.8712 659.899 25.0655
3242 597.412 22.6015 612.194 22.675
3243 562.524 20.3459 645.735 24.1479
3244 576.738 20.6641 637.549 22.8599
3245 569.178 20.3057 603.363 21.2359
3246 561.652 20.4917 619.328 22.7253
3247 602.573 23.3404 591.93 21.0193
3248 602.587 23.8816 598.377 22.0928
3249 627.693 25.1042 623.826 22.5382
3250 555.298 19.8609 617.643 22.2269
3251 620.507 24.7217 611.818 22.5756
3252 547.029 20.1464 608.654 22.8189
3253 619.489 25.2262 615.614 23.188
3254 583.62 22.8211 607.446 22.4995
3255 617.655 24.1739 623.154 23.394
3256 570.355 21.2266 602.255 21.7956
3257 577.3 22.3413 613.721 23.2328
3258 589.652 23.2443 611.061 22.7232
3259 0 0 0 0
3260 0 0 0 0
3261 0 0 0 0
3262 0 0 0 0
3263 0 0 0 0
3264 0 0 0 0
3265 0 0 0 0
3266 0 0 0 0
3267 0 0 0 0
3268 0 0 0 0
3269 601.602 24.4571 625.477 24.5553
3270 584.524 23.2288 628.971 24.9305
3271 622.993 26.1094 612.246 23.3778
3272 613.102 24.8686 671.773 27.6732
3273 605.515 24.7322 649.28 26.4604
3274 559.138 21.5929 647.875 26.6441
3275 642.031 27.8106 643.399 25.8039
3276 559.985 21.876 636.711 25.5357
3277 628.995 26.5052 659.083 26.499
3278 602.434 24.3451 631.113 25.0562
3279 584.162 23.2208 615.005 23.8391
3280 558.135 21.1387 660.022 26.9017
3281 640.59 27.4661 625.081 24.3018
3282 645.904 28.314 653.884 26.7413
3283 597.521 23.7579 628.445 24.3035
3284 615.911 26.1107 652.277 26.9341
3285 564.98 22.1624 630.605 25.1914
3286 583.851 23.0273 611.632 23.195
3287 591.89 23.8335 611.109 23.3328
3288 584.193 23.5236 631.491 25.2474
3289 566.049 22.0894 612.982 23.8283
3290 562.284 22.2992 611.481 24.273
3291 625.097 25.9529 604.524 23.438
3292 605.625 24.3371 607.475 23.0552
3293 574.376 22.8681 607.497 23.5539
3294 606.901 25.1614 639.587 26.1402
3295 574.369 23.2454 615.668 24.6617
3296 595.287 24.421 611.938 23.7288
3297 594.489 23.533 654.464 26.5519
3298 579.426 22.9167 658.372 26.8526
3299 584.47 23.6153 596.611 22.1918
3300 572.275 22.6327 630.532 25.4299
3301 595.109 24.7291 630.722 25.4402
3302 620.246 25.4977 616.596 23.1716
3303 619.997 25.0944 625.299 23.5295
3304 612.292 25.1272 621.22 23.7433
3305 608.721 25.1942 627.679 24.5706
3306 591.81 23.4435 698.974 30.3923
3307 606.028 24.6573 589.259 21.6286
3308 635.389 25.9835 642.548 24.4871
3309 600.792 23.4971 655.685 25.6885
3310 606.897 24.5772 622.3 24.0833
3311 625.902 25.5726 645.696 25.4962
3312 579.769 22.6601 594.323 22.0001
3313 602.834 23.3729 627.486 23.7167
3314 635.162 24.5986 686.795 27.3623
3315 635.76 25.9985 634.71 24.052
3316 599.79 23.0162 628.959 23.8085
3317 632.982 25.6736 612.274 22.9252
3318 639.418 26.3717 662.834 26.5379
3319 635.433 24.5645 615.279 21.8782
3320 621.386 23.3921 665.215 25.0509
3321 581.018 21.5748 636.497 23.9534
3322 582.488 21.3087 603.214 21.3108
3323 579.618 21.293 616.554 22.6682
3324 619.397 23.6422 624.914 22.5361
3325 633.65 23.6243 686.345 26.3248
3326 591.117 21.2408 626.571 22.3115
3327 606.674 22.7268 650.347 24.2649
3328 576.187 20.6632 639.983 23.3574
3329 614.668 23.4673 618.965 22.4692
3330 596.737 21.3932 639.154 22.3543
3331 646.172 24.2006 686.644 25.4447
3332 647.108 24.8356 598.634 20.2091
3333 591.471 21.2892 700.438 27.2806
3334 577.96 20.4151 605.863 21.3294
3335 585.559 20.7505 638.901 22.9595
3336 644.42 23.9606 675.429 24.5635
3337 635.225 23.6187 658.863 23.5641
3338 639.593 24.416 615.035 21.3236
3339 662.764 25.9936 628.972 21.9633
3340 660.432 25.8165 651.456 23.9444
3341 595.938 20.9769 667.022 24.3194
3342 587.868 20.0758 621.1 20.7926
3343 584.832 20.0236 650.231 23.0402
3344 597.442 21.4491 644.51 22.7934
3345 596.083 21.3604 656 23.7857
3346 605.714 21.9046 623.47 21.7494
3347 615.475 21.4995 660.75 23.1111
3348 625.702 22.4153 627.617 21.1539
3349 616.453 22.5564 684.464 25.6738
3350 595.399 20.7959 632.473 21.9023
3351 612.362 22.0456 655.477 23.7018
3352 641.528 23.9521 633.603 21.6444
3353 609.21 21.0553 659.683 22.9221
3354 638.677 22.9595 654.789 22.6827
3355 579.197 19.446 654.799 23.1807
3356 631.451 22.4457 674.338 24.1034
3357 646.357 23.7619 685.165 24.9359
3358 632.311 21.5516 689.824 24.451
3359 677.833 24.6911 688.694 23.9219
3360 652.034 23.2399 627.533 20.5647
3361 598.8 19.7356 678.18 23.3084
3362 666.044 23.9993 688.956 24.012
3363 615.461 20.6017 687.291 23.8925
3364 665.748 22.8643 648.893 20.3148
3365 628.842 20.4987 665.766 21.4096
3366 621.891 20.2555 667.213 21.7667
3367 616.02 19.6694 666.033 21.4784
3368 605.353 19.4108 660.078 21.292
3369 650.536 21.377 694.512 22.6009
3370 634.307 20.1802 713.31 23.3634
3371 613.709 18.7147 709.098 23.5243
3372 656.289 21.6406 667.757 20.9774
3373 680.048 22.9416 725.416 24.5821
3374 694.757 24.1217 694.037 22.0951
3375 677.491 22.2413 673.928 20.68
3376 679.392 22.2836 672.218 21.2362
3377 654.776 20.9823 717.174 23.5604
3378 683.396 22.7732 719.767 23.6544
3379 631.357 19.7187 701.324 22.8182
3380 659.543 21.5264 673.332 21.0296
3381 711.081 24.0783 687.167 21.8625
3382 634.819 19.7222 692.831 22.4857
3383 656.854 21.0602 689.91 22.2339
3384 655.672 20.8473 686.584 22.0188
3385 651.042 21.2756 716.234 23.8522
3386 645.392 20.9755 710.628 23.7043
3387 0 0 0 0
3388 0 0 0 0
3389 0 0 0 0
3390 0 0 0 0
3391 0 0 0 0
3392 0 0 0 0
3393 0 0 0 0
3394 0 0 0 0
3395 0 0 0 0
3396 0 0 0 0
3397 638.359 21.497 648.582 20.842
3398 683.903 23.9608 721.11 25.1875
3399 728.484 27.0808 660.561 21.4569
3400 682.846 23.9557 683.96 22.4213
3401 695.025 24.9866 641.64 20.4311
3402 651.912 22.3537 722.07 25.7196
3403 640.156 21.5463 665.59 22.0149
3404 629.126 21.2569 642.423 20.6857
3405 666.13 23.6199 649.302 20.8216
3406 633.597 21.4028 641.7 20.4585
3407 657.909 23.4258 644.829 21.2483
3408 656.899 23.4995 661.28 22.0434
3409 592.22 19.3297 646.556 21.4724
3410 659.617 24.0785 676.643 23.6669
3411 613.765 20.634 675.996 23.4604
3412 660.921 24.2341 610.79 19.9435
3413 633.197 23.4646 629.616 21.7657
3414 641.936 23.224 613.535 20.4505
3415 592.246 20.6753 635.452 22.5281
3416 604.489 21.8144 605.769 20.4254
3417 620.325 22.2731 626.953 21.6383
3418 574.111 20.1945 592.303 20.5023
3419 607.987 22.364 655.49 24.8605
3420 597.714 22.2379 640.735 24.1867
3421 581.136 21.3317 641.958 25.1258
3422 609.785 23.4027 616.205 22.638
3423 573.147 20.7684 606.196 22.3394
3424 585.473 22.2941 588.011 21.9546
3425 583.905 22.1736 642.617 25.6535
3426 589.556 23.5048 588.204 22.2318
3427 575.027 22.6624 610.412 23.9603
3428 551.797 20.509 664.625 27.7236
3429 567.449 22.3292 599.813 23.5032
3430 605.57 25.7026 601.932 24.4868
3431 567.354 22.9881 565.456 21.4428
3432 576.197 24.1811 606.465 24.8797
3433 520.825 20.3288 573.563 22.9256
3434 504.437 18.6829 575.828 22.8532
3435 545.549 22.3133 616.32 26.0779
3436 590.497 25.9184 570.786 23.0537
3437 543.205 22.4116 601.436 25.2663
3438 547.203 23.0944 593.411 25.3301
3439 538.124 22.5143 582.134 23.7258
3440 516.349 20.63 558.922 22.58
3441 576.91 26.3325 569.286 24.1467
3442 519.351 21.2871 606.531 26.3874
3443 525.502 22.6486 563.051 23.7644
3444 580.965 27.4884 577.742 24.7446
3445 665.764 43.8684 689.145 43.8365
3446 482.236 51.6092 771.894 89.5369
3447 0 0 0 0
3448 0 0 0 0
3449 0 0 0 0
3450 0 0 0 0
3451 0 0 0 0
3452 0 0 0 0
3453 0 0 0 0
3454 0 0 0 0
3455 0 0 0 0
3456 0 0 0 0
3457 0 0 0 0
3458 0 0 0 0
3459 0 0 0 0
3460 0 0 0 0
3461 414.093 46.8387 708.927 83.4693
3462 438.865 42.3847 663.689 69.3811
3463 516.723 53.7706 617.008 60.3204
3464 508.414 23.2623 596.36 27.9188
3465 530.725 26.0167 491.786 19.9719
3466 524.495 25.8508 565.045 26.793
3467 530.317 25.4698 603.963 29.0281
3468 507.971 22.9192 497.599 20.1183
3469 476.969 20.9261 576.092 26.6371
3470 464.32 20.3928 529.143 22.911
3471 499.681 23.4815 547.659 25.6101
3472 502.374 23.4515 543.87 24.5014
3473 496.951 22.8801 555.685 24.7261
3474 510.709 23.3254 539.608 23.8647
3475 509.479 24.4194 586.919 28.0853
3476 506.319 23.8248 535.83 24.1055
3477 467.055 21.0941 524.164 23.6078
3478 523.009 25.2602 561.585 26.3564
3479 511.76 24.3861 504.001 20.7019
3480 530.779 26.8711 569.653 27.0867
3481 496.499 23.2568 508.005 21.862
3482 511.6 25.0248 595.457 29.6624
3483 556.852 29.4669 524.307 23.4801
3484 558.207 29.0603 533.452 23.978
3485 511.058 24.7145 523.889 22.7998
3486 455.888 20.499 594.835 29.5855
3487 490.987 23.0973 567.017 26.9799
3488 474.913 22.1794 508.936 22.4806
3489 515.911 26.0763 502.751 21.3116
3490 491.091 23.4917 537.385 24.1631
3491 477.042 22.0477 589.524 28.7291
3492 481.334 22.5082 547.895 25.1952
3493 500.751 24.2533 515.503 22.6511
3494 497.947 24.0259 517.528 23.1346
3495 528.408 26.3925 562.128 26.572
3496 500.326 24.7767 592.887 29.6921
3497 483.404 21.9199 516.301 22.5238
3498 492.463 23.0141 503.052 21.5188
3499 522.372 25.9613 545.743 25.2589
3500 507.103 24.7595 542.324 24.6974
3501 502.029 24.1887 566.742 26.8311
3502 504.255 24.5594 582.957 28.1159
3503 439.142 18.7392 519.886 22.8367
3504 534.468 27.5657 516.784 22.9087
3505 481.18 22.1923 534.342 24.3111
3506 518.402 25.7607 581.466 28.5623
3507 471.335 21.6548 572.001 28.3063
3508 478.073 21.9698 540.599 24.6426
3509 478.525 21.8352 578.089 28.3275
3510 491.865 23.0937 553.2 26.0942
3511 523.765 26.2772 507.735 22.1021
3512 559.924 29.9772 554.539 26.4119
3513 468.526 21.924 511.234 22.448
3514 519.009 25.559 564.873 26.4802
3515 0 0 0 0
3516 0 0 0 0
3517 0 0 0 0
3518 0 0 0 0
3519 0 0 0 0
3520 0 0 0 0
3521 0 0 0 0
3522 0 0 0 0
3523 0 0 0 0
3524 0 0 0 0
3525 471.898 21.95 529.741 24.5577
3526 518.679 25.8899 532.233 24.6576
3527 527.179 26.4697 539.814 24.8255
3528 471.212 21.3507 531.582 24.4069
3529 520.078 26.9009 523.985 24.5182
3530 549.122 29.3286 509.663 23.0087
3531 494.954 23.1045 558.765 25.8014
3532 557.99 29.2228 532.712 23.8062
3533 514.85 25.186 569.645 27.6294
3534 561.43 30.0913 538.708 25.2051
3535 545.885 30.3124 541.201 26.6452
3536 531.34 26.7903 562.825 27.0741
3537 487.36 22.5674 508.699 21.6471
3538 461.128 20.7383 568.043 27.6153
3539 530.393 27.4448 548.659 25.9284
3540 529.349 29.045 514.88 24.4771
3541 442.591 20.4568 553.711 28.0481
3542 488.692 23.7948 554.694 26.2137
3543 560.816 31.0972 564.702 27.7934
3544 487.498 24.1731 517.189 23.8201
3545 513.833 27.411 528.102 25.5335
3546 494.881 27.0185 539.814 27.9973
3547 497.532 26.2903 528.299 25.6944
3548 469.021 22.432 533.437 24.8439
3549 499.526 26.1337 558.488 27.9956
3550 520.028 28.2834 569.125 29.2499
3551 342.662 23.7815 470.186 38.8845
3552 0 0 0 0
3553 0 0 0 0
3554 0 0 0 0
3555 0 0 0 0
3556 0 0 0 0
3557 0 0 0 0
3558 0 0 0 0
3559 0 0 0 0
3560 0 0 0 0
3561 0 0 0 0
3562 0 0 0 0
3563 0 0 0 0
3564 0 0 0 0
3565 0 0 0 0
3566 0 0 0 0
3567 0 0 0 0
3568 0 0 0 0
3569 517.13 25.5417 589.974 27.6759
3570 535.657 25.0363 573.28 24.3899
3571 524.509 23.7908 582.954 25.3439
3572 531.495 25.324 580.432 25.5467
3573 520.834 23.7058 560.326 23.3755
3574 505.189 23.422 605.176 28.1748
3575 496.355 21.6688 614.807 27.3948
3576 555.511 25.6451 611.558 25.988
3577 532.755 24.138 604.19 26.3223
3578 534.222 25.0251 586.473 24.8856
3579 570.643 27.5044 615.888 27.6387
3580 557.479 27.0133 632.339 29.4313
3581 530.125 22.9119 597.94 24.776
3582 569.296 26.4696 626.905 27.1247
3583 526.2 23.5703 633.991 28.7222
3584 540.318 24.7098 615.581 27.1685
3585 548.811 25.8655 621.788 27.8249
3586 563.935 26.7266 581.398 24.0539
3587 594.953 28.7212 561.874 21.7942
3588 579.979 28.0383 643.824 28.717
3589 513.888 22.4013 567.981 23.1085
3590 557.414 25.9852 650.934 29.5699
3591 539.174 24.9003 640.792 29.2509
3592 567.396 27.0143 606.378 25.9227
3593 546.81 24.2924 678.859 30.9713
3594 544.012 24.8774 587.314 24.1944
3595 524.587 23.0708 633.16 27.8017
3596 604.156 29.3055 658.288 29.4859
3597 569.362 26.7907 634.972 28.0628
3598 620.183 30.2708 701.435 32.5305
3599 570.956 25.8454 650.086 28.6966
3600 578.051 26.8081 615.036 26.2091
3601 621.851 30.7991 586.307 23.2187
3602 582.145 26.9 652.144 28.5141
3603 572.256 25.9962 646.781 28.2916
3604 585.106 26.4597 660.694 29.074
3605 599.858 28.1784 635.783 27.3249
3606 572.836 25.9664 658.646 29.7813
3607 609.387 28.7083 639.842 27.4269
3608 571.914 26.0595 655.356 29.3913
3609 600.304 28.1931 576.222 22.3508
3610 582.901 26.394 649.94 28.9802
3611 602.048 28.9122 631.442 27.4385
3612 587.045 27.0132 652.322 29.3922
3613 591.909 27.562 657.041 29.9589
3614 554.149 25.1511 581.984 24.8077
3615 583.778 26.9535 600.213 25.2967
3616 544.181 24.4702 574.421 23.741
3617 547.728 24.708 624.105 27.9243
3618 501.542 20.519 617.508 27.3898
3619 567.033 26.3702 570.533 24.2246
3620 556.587 26.1249 631.974 29.5762
3621 533.506 24.5115 616.916 28.1395
3622 566.183 27.8064 594.28 26.9626
3623 507.129 22.5843 599.735 27.1048
3624 574.883 28.4943 629.017 30.0569
3625 542.398 26.1727 560.583 24.8016
3626 509.557 23.9703 602.636 28.2728
3627 532.35 26.1903 575.614 27.0171
3628 558.138 28.8966 626.401 31.0102
3629 546.056 28.1138 636.594 32.1004
3630 578.219 31.6424 610.761 30.805
3631 545.89 29.2096 620.416 32.7657
3632 606.399 35.8837 527.243 23.8441
3633 520.557 27.7279 593.362 30.975
3634 531.195 28.8228 584.121 30.0293
3635 541.168 30.4513 555.607 27.524
3636 504.386 27.1648 533.94 26.0394
3637 515.463 29.2747 579.905 31.5343
3638 501.143 27.8513 497.424 24.0146
3639 500.274 27.8287 483.88 22.8842
3640 533.463 31.9521 554.86 30.0554
3641 473.986 25.5675 529.66 27.7375
3642 422.848 21.3427 528.397 28.9951
3643 0 0 0 0
3644 0 0 0 0
3645 0 0 0 0
3646 0 0 0 0
3647 0 0 0 0
3648 0 0 0 0
3649 0 0 0 0
3650 0 0 0 0
3651 0 0 0 0
3652 0 0 0 0
3653 470.487 30.6327 513.838 30.1245
3654 419.359 24.1807 510.417 29.9163
3655 449.472 27.9313 503.557 29.6898
3656 452.988 29.2102 566.577 36.9207
3657 453.864 28.7842 533.723 31.5601
3658 467.285 30.2636 491.25 27.8641
3659 472.835 31.2508 479.582 26.5396
3660 451.026 28.5765 527.345 32.965
3661 448.819 30.2252 463.691 25.6554
3662 453.95 29.5132 494.963 27.7892
3663 469.828 31.5904 533.542 32.9801
3664 426.616 26.5833 447.769 23.4996
3665 416.135 25.3288 511.772 30.758
3666 443.915 29.5087 472.874 27.0452
3667 452.781 30.7736 471.805 26.5141
3668 410.429 25.1693 488.071 28.3885
3669 394.05 23.1247 510.885 31.3229
3670 426.758 27.4481 525.313 32.1943
3671 408.88 25.8139 476.644 27.5336
3672 388.718 24.2826 489.203 29.9909
3673 433.265 29.2515 495.399 30.3081
3674 381.205 22.9508 503.797 30.9784
3675 459.568 32.7923 519.756 32.8255
3676 486.962 37.173 485.418 29.4207
3677 394.813 26.1831 526.583 35.7683
3678 435.317 31.9669 451.27 26.668
3679 420.237 28.0872 501.897 31.9444
3680 431.334 30.6838 460.515 27.4209
3681 407.1 27.2665 564.293 40.2221
3682 395.089 26.224 535.974 37.1849
3683 400.95 28.3824 443.2 26.9865
3684 419.398 29.8856 460.684 28.3401
3685 434.144 30.4949 506.846 33.0972
3686 369.4 22.9567 428.385 24.3138
3687 432.484 30.7943 509.485 33.3183
3688 394.27 26.8738 415.233 23.435
3689 344.014 21.6685 476.134 31.2387
3690 360.575 21.9797 493.711 31.4231
3691 421.555 29.4937 444.158 25.6958
3692 370.312 22.9164 412.776 22.1426
3693 390.742 26.0061 490.384 31.0083
3694 366.209 23.1848 437.04 26.121
3695 376.343 23.5169 434.645 25.0011
3696 416.835 27.5108 539.319 35.6526
3697 432.42 29.7379 535.26 35.1627
3698 459.505 32.6735 491.8 29.7264
3699 419.59 28.2304 504.679 31.8256
3700 470.536 36.5359 457.964 27.0262
3701 441.879 29.9584 491.128 28.9717
3702 479.022 34.2463 518.185 31.7092
3703 484.95 36.5274 452.817 25.1535
3704 440.177 30.12 492.102 29.0188
3705 442.238 31.1992 511.495 32.2466
3706 479.859 35.8051 471.196 27.3679
3707 428.834 27.8707 544.292 33.7289
3708 432.516 29.2534 612.87 43.5918
3709 412.463 25.9018 513.101 31.3466
3710 500.826 38.493 517.882 31.9366
3711 473.389 36.2199 519.745 32.6999
3712 431.789 28.489 545.547 34.9126
3713 461.513 32.457 480.314 27.275
3714 465.501 33.0934 489.006 28.8012
3715 419.292 27.2809 513.767 31.6329
3716 435.93 30.2381 541.119 35.4986
3717 485.073 37.3084 526.949 34.1586
3718 403.32 25.3333 465.222 25.9713
3719 431.488 28.6006 525.052 32.8416
3720 512.111 39.9307 531.388 33.9984
3721 429.037 28.5802 475.346 27.4635
3722 456.109 32.475 483.055 29.1522
3723 420.852 28.2945 545.468 36.6704
3724 499.675 38.8744 467.132 26.7098
3725 465.93 33.1583 559.106 38.5497
3726 437.37 29.4662 525.935 33.2178
3727 462.11 32.8509 501.03 30.6049
3728 415.694 28.2605 476.615 28.7768
3729 486.303 36.8196 506.437 31.332
3730 466.512 33.9892 498.023 31.1784
3731 416.846 27.5813 483.5 29.927
3732 434.233 29.7711 506.279 32.5245
3733 452.775 33.0271 506.099 32.5426
3734 404.277 27.1731 461.581 28.1492
3735 523.221 43.6779 536.315 36.8514
3736 388.621 25.4232 518.165 35.6762
3737 450.931 34.0192 531.067 36.9738
3738 384.31 24.3723 462.182 28.3042
3739 432.43 32.5322 452.783 27.8111
3740 442.811 33.3926 508.036 35.2216
3741 387.012 26.2535 488.925 32.7675
3742 435.921 33.3975 435.26 27.0124
3743 399.035 28.1363 466.787 30.4517
3744 472.684 38.7436 482.939 31.9915
3745 449.537 37.4209 481.402 32.8925
3746 488.34 43.5119 544.088 42.1139
3747 355.332 24.0753 469.853 32.7562
3748 453.908 38.4048 485.022 34.6396
3749 453.161 37.7428 458.706 30.692
3750 445.551 37.2112 499.007 36.872
3751 461.879 41.0995 511.201 38.9377
3752 427.829 36.268 457.633 31.9334
3753 418.891 34.5636 405.35 25.463
3754 390.81 30.1129 472.699 33.8496
3755 369.449 26.5176 473.635 33.3301
3756 408.459 33.2258 469.862 33.6118
3757 423.005 36.3195 495.336 36.9743
3758 415.706 35.3183 436.433 29.7627
3759 335.081 23.6022 500.527 38.7354
3760 413.106 34.214 452.321 31.7049
3761 415.067 34.5925 491.019 36.8632
3762 411.44 35.3997 458.154 33.5737
3763 396.17 33.149 460.464 33.953
3764 398.037 34.5009 450.4 32.7066
3765 383.439 30.6227 598.311 55.2227
3766 439.084 38.7067 492.37 37.6717
3767 390.834 32.2328 491.142 38.0239
3768 437.214 40.345 462.701 34.7765
3769 380.075 31.4713 516.918 42.6743
3770 383.065 31.8648 394.427 25.5137
3771 0 0 0 0
3772 0 0 0 0
3773 0 0 0 0
3774 0 0 0 0
3775 0 0 0 0
3776 0 0 0 0
3777 0 0 0 0
3778 0 0 0 0
3779 0 0 0 0
3780 0 0 0 0
3781 357.482 31.8056 470.704 38.2904
3782 490.367 53.5772 466.595 35.4389
3783 516.854 60.4394 488.222 38.581
3784 433.256 42.5155 545.156 47.7601
3785 497.23 56.7208 436.448 31.9382
3786 426.157 42.9779 444.145 33.3641
3787 388.912 35.0664 455.339 33.938
3788 432.577 41.5692 417.853 27.4881
3789 426.551 40.5388 431.729 28.6972
3790 397.654 35.6756 497.967 39.2701
3791 403.041 36.8971 545.571 47.6464
3792 348.569 28.3602 534.618 45.962
3793 406.896 35.7631 542.801 43.9455
3794 408.165 35.297 491.284 36.3894
3795 403.616 34.7411 467.763 32.5989
3796 460.24 46.4923 497.392 37.5294
3797 411.97 37.8521 551.053 45.7439
3798 458.498 45.0299 510.04 37.875
3799 507.312 51.8583 528.227 38.941
3800 486.985 47.3697 513.84 37.5759
3801 410.014 34.9705 535.833 40.532
3802 479.826 47.2657 481.197 33.4573
3803 404.877 34.7019 492.557 35.3914
3804 494.771 50.1605 525.759 39.601
3805 419.68 35.3397 459.955 29.6062
3806 441.002 37.9659 509.011 36.3853
3807 465.011 43.1398 528.947 38.7101
3808 461.666 43.1298 499.991 36.6946
3809 451.472 41.3102 526.525 39.7049
3810 444.717 38.5166 522.583 37.0886
3811 503.915 49.4944 567.472 44.6346
3812 408.86 33.4927 477.008 31.7261
3813 384.633 29.8694 503.818 35.5202
3814 401.876 32.7508 638.587 57.6912
3815 437.051 37.9588 506.23 35.9298
3816 493.598 46.062 637.384 53.9966
3817 441.616 38.1225 632.018 54.4716
3818 418.149 33.713 545.026 40.2399
3819 512.582 51.0868 494.159 33.7585
3820 483.593 46.0641 556.331 43.0313
3821 492.897 45.3953 520.378 36.6328
3822 453.941 39.0492 523.699 36.4385
3823 483.393 43.2318 590.111 46.0842
3824 420.355 32.8267 516.587 35.0448
3825 522.912 52.2984 494.63 33.2237
3826 471.564 41.7196 646.984 55.5199
3827 529.021 51.3027 603.099 46.5031
3828 478.175 41.1171 552.932 40.0312
3829 525.323 49.1432 557.845 40.2102
3830 513.6 47.9813 609.349 48.654
3831 484.109 44.9368 599.646 48.0928
3832 499.551 45.184 652.561 54.6166
3833 535.754 51.7579 669.119 58.0299
3834 539.205 52.8464 592.761 46.2634
3835 427.762 33.394 527.301 36.3702
3836 442.621 37.2441 540.587 39.1778
3837 569.99 61.8495 618.755 50.5467
3838 469.718 41.6218 540.443 38.7848
3839 458.728 40.6804 543.934 39.8291
3840 544.073 56.0054 521.626 37.5398
3841 490.595 46.2947 680.404 61.1962
3842 489.735 47.8694 538.855 40.373
3843 502.866 50.1052 631.695 55.2226
3844 447.458 41.1935 546.746 42.5337
3845 548.527 60.9425 528.263 40.337
3846 551.051 61.1288 640.359 57.544
3847 461.095 44.599 587.828 49.4985
3848 445.575 44.2062 509.973 39.7393
3849 478.679 49.6773 599.798 54.0067
3850 535.792 62.8449 472.974 34.4354
3851 492.896 53.6091 507.441 40.468
3852 433.354 41.0562 537.452 43.2766
3853 409.617 38.7416 565.553 49.4989
3854 498.338 57.3349 573.462 52.2707
3855 452.725 47.0647 558.97 49.0258
3856 427.007 43.2289 493.385 39.243
3857 455.092 48.3634 529.259 43.6654
3858 494.926 55.2689 573.597 50.4582
3859 407.772 41.7885 490.289 38.8345
3860 422.37 43.4496 493.522 39.8537
3861 407.807 41.5914 634.786 65.5199
3862 478.05 55.7185 522.987 44.3291
3863 542.412 70.5396 542.759 47.2064
3864 467.064 53.641 596.228 58.6506
3865 392.539 40.9211 496.91 42.7014
3866 459.412 55.1488 485.12 40.5907
3867 421.672 48.3672 597.769 61.9705
3868 473.608 58.852 567.76 55.0807
3869 561.931 83.5795 458.535 36.3562
3870 375.995 39.5521 501.851 44.6908
3871 372.971 40.0778 476.288 42.4614
3872 392.891 46.5207 412.82 33.0601
3873 442.67 59.7173 447.542 38.6405
3874 470.341 65.298 615.496 70.9788
3875 469.315 65.135 469.862 42.3812
3876 361.618 42.1792 431.137 37.739
3877 456.892 67.1257 452.53 42.9694
3878 303.63 32.3837 473.134 47.0255
3879 394.179 52.2791 454.723 43.2797
3880 304.463 32.9123 437.131 40.199
3881 391.897 53.0758 386.458 32.5088
3882 433.908 69.9083 411.317 38.306
3883 362.593 49.8086 565.31 70.4847
3884 389.394 58.451 435.502 44.7736
3885 476.804 85.877 392.609 35.6686
3886 327.696 40.8654 440.799 44.619
3887 428.913 72.7065 420.947 42.434
3888 304.447 39.4366 412.881 42.0418
3889 327.615 45.2451 447.839 49.733
3890 352.762 53.8493 457.322 50.7125
3891 372.101 55.8663 435.451 45.6753
3892 303.756 38.0105 494.232 58.5798
3893 339.355 48.7175 381.807 37.0147
3894 281.848 34.5755 389.73 38.1977
3895 274.283 34.3286 465.694 54.6049
3896 286.955 35.4254 385.044 35.9849
3897 310.453 39.2683 442.447 46.8135
3898 362.241 53.7541 404.988 38.8445
3899 0 0 0 0
3900 0 0 0 0
3901 0 0 0 0
3902 0 0 0 0
3903 0 0 0 0
3904 0 0 0 0
3905 0 0 0 0
3906 0 0 0 0
3907 0 0 0 0
3908 0 0 0 0
3909 359.448 52.4855 466.873 47.9157
3910 273.396 32.1376 425.678 40.5737
3911 299.312 38.65 470.865 50.3606
3912 365.962 56.0178 455.242 47.766
3913 352.191 50.4068 505.393 55.9385
3914 261.669 27.7404 515.611 57.4037
3915 348.57 47.8328 461.65 46.265
3916 488.818 95.2583 386.118 33.4714
3917 381.556 59.4949 497.364 54.9302
3918 324.086 42.5486 464.452 46.4823
3919 326.059 41.1859 587.993 74.4328
3920 300.892 34.7521 448.929 42.4414
3921 330.076 42.4073 463.865 45.5213
3922 476.291 90.8083 393.554 34.8483
3923 287.036 32.646 471.195 48.4329
3924 352.132 48.1245 427.953 39.0711
3925 322.873 39.2544 405.301 34.0681
3926 382.249 53.633 452.857 42.8574
3927 309.784 37.0489 435.236 40.4117
3928 377.478 54.45 457.899 45.0395
3929 424.766 66.3161 437.281 40.7861
3930 302.618 34.3585 464.694 44.4824
3931 330.612 39.4357 517.925 54.8069
3932 343.514 43.0565 466.686 45.2424
3933 341.846 43.9811 411.653 35.8908
3934 330.597 41.5025 452.216 42.8143
3935 381.731 52.4947 437.61 38.699
3936 293.101 31.5742 528.56 56.4117
3937 402.778 55.8891 577.853 66.1317
3938 289.366 29.6231 476.622 45.0716
3939 375.148 50.4137 500.056 50.4821
3940 306.748 32.3629 533.02 56.7693
3941 364.639 46.2448 444.359 38.8332
3942 327.157 37.8573 537.255 56.5134
3943 346.641 40.298 512.41 49.8255
3944 424.27 59.9764 522.233 52.7803
3945 442.909 66.0034 470.657 43.2762
3946 350.751 40.1531 465.382 41.1455
3947 356.147 42.2622 516.496 51.0987
3948 360.107 42.3627 451.786 38.8519
3949 324.36 33.9301 435.11 35.4184
3950 367.197 45.738 599.2 67.216
3951 385.227 48.9144 589.659 64.9603
3952 393.469 48.5146 478.273 42.2256
3953 358.471 41.559 464.46 40.6885
3954 366.909 43.0008 495.417 44.1056
3955 331.024 34.6818 528.395 49.7008
3956 303.368 30.6955 480.156 42.847
3957 348.559 38.8577 523.628 50.829
3958 386.365 46.9411 457.624 39.4535
3959 316.147 33.3831 419.52 33.3955
3960 315.043 32.2073 434.031 34.8446
3961 377.05 46.7101 538.929 54.1344
3962 369.812 46.047 479.601 43.5261
3963 358.065 42.0087 388.717 28.8599
3964 327.556 37.8117 450.458 40.4512
3965 402.933 56.0153 477.011 44.5645
3966 386.39 51.3532 477.521 44.4008
3967 342.138 42.2892 457.292 42.1807
3968 416.698 62.2557 417.706 35.9239
3969 339.201 42.8159 399.965 33.4015
3970 292.754 34.3083 555.294 65.9094
3971 297.439 34.6741 408.349 35.5804
3972 274.482 29.554 439.14 41.1898
3973 330.849 45.5352 420.934 38.8206
3974 286.468 33.5033 461.388 47.4421
3975 393.568 65.0609 554.776 70.3362
3976 349.685 55.0112 531.859 65.663
3977 376.075 59.5863 396.375 35.9379
3978 301.038 40.7049 411.483 39.3834
3979 352.758 59.7769 417.171 42.4158
3980 335.195 51.0282 429.519 44.6617
3981 417.335 89.0068 382.433 36.9968
3982 322.399 50.9166 414.506 43.3518
3983 0 0 0 0
3984 236.061 28.5723 486.863 58.6734
3985 268.659 36.5649 436.81 48.2253
3986 347.701 61.9129 445.723 50.5577
3987 256.245 36.5276 386.48 40.4714
3988 326.568 55.5391 480.726 58.4862
3989 229.112 27.1696 423.298 45.7321
3990 237.672 31.878 424.883 47.5242
3991 340 61.7931 490.573 63.6094
3992 245.433 35.7844 515.32 72.2815
3993 278.213 45.4277 410.727 46.3652
3994 269.269 39.7694 376.726 37.1217
3995 377.063 81.4528 407.793 43.1997
3996 252.168 37.7618 486.364 64.235
3997 307.663 55.4434 411.577 45.6062
3998 204.882 27.3154 384.074 42.9229
3999 334.958 66.4946 416.125 48.2067
4000 369.533 79.5819 565.944 84.9736
4001 245.469 37.6708 397.003 43.1126
4002 0 0 0 0
4003 289.301 55.0029 430.4 53.8352
4004 215.422 31.7064 422.066 51.4287
4005 288.165 51.7655 416.408 47.4283
4006 358.249 83.1654 419.744 48.3815
4007 316.148 67.9106 458.598 60.2534
4008 312.847 65.3561 479.231 66.2876
4009 255.675 45.6771 412.658 49.8611
4010 301.692 62.1586 501.249 71.3981
4011 447.288 126.054 423.674 50.1162
4012 423.338 115.055 415.657 48.5184
4013 403.617 108.875 388.224 43.8195
4014 374.735 95.6863 501.546 73.0566
4015 284.802 57.7662 590.362 100.342
4016 363.756 86.288 456.758 57.7677
4017 321.659 65.9189 504.933 67.707
4018 345.672 77.2798 438.724 52.5212
4019 293.192 57.0841 388.363 42.0269
4020 247.235 41.0467 445.205 55.4344
4021 464.176 136.658 463.128 58.011
4022 297.949 52.4493 507.636 65.817
4023 396.493 89.978 414.783 43.1044
4024 256.821 41.0019 537.942 74.5125
4025 279.442 45.8672 531.425 73.0494
4026 302.13 54.2859 520.234 71.4496
4027 0 0 0 0
4028 0 0 0 0
4029 0 0 0 0
4030 0 0 0 0
4031 0 0 0 0
